SpectraSuite Data File
++++++++++++++++++++++++++++++++++++
Date: Mon May 06 13:22:20 CDT 2013
User: Students
Dark Spectrum Present: Yes
Reference Spectrum Present: Yes
Number of Sampled Component Spectra: 1
Spectrometers: USB4H00887
Integration Time (usec): 50000 (USB4H00887)
Spectra Averaged: 10 (USB4H00887)
Boxcar Smoothing: 5 (USB4H00887)
Correct for Electrical Dark: No (USB4H00887)
Strobe/Lamp Enabled: No (USB4H00887)
Correct for Detector Non-linearity: No (USB4H00887)
Correct for Stray Light: No (USB4H00887)
Number of Pixels in Processed Spectrum: 3648
>>>>>Begin Processed Spectral Data<<<<<
345.83	-0.233
346.05	-0.233
346.26	-0.233
346.48	-0.026
346.70	-0.000
346.92	-0.369
347.14	-0.171
347.35	-0.105
347.57	-0.156
347.79	-0.113
348.01	-0.156
348.23	-0.301
348.44	-0.414
348.66	-0.233
348.88	-0.130
349.10	-0.123
349.32	-0.087
349.53	-0.089
349.75	-0.085
349.97	-0.058
350.19	-0.033
350.41	-0.070
350.62	-0.030
350.84	-0.030
351.06	-0.023
351.28	0.004
351.50	-0.003
351.71	-0.038
351.93	-0.058
352.15	-0.065
352.37	-0.100
352.58	-0.106
352.80	-0.098
353.02	-0.068
353.24	-0.070
353.46	-0.069
353.67	-0.153
353.89	-0.128
354.11	-0.082
354.33	-0.103
354.54	-0.100
354.76	-0.050
354.98	-0.056
355.20	-0.059
355.41	-0.088
355.63	-0.064
355.85	-0.079
356.07	-0.061
356.28	-0.055
356.50	-0.073
356.72	-0.045
356.94	-0.055
357.15	-0.054
357.37	-0.079
357.59	-0.095
357.81	-0.126
358.02	-0.127
358.24	-0.084
358.46	-0.101
358.68	-0.080
358.89	-0.080
359.11	-0.102
359.33	-0.114
359.55	-0.126
359.76	-0.095
359.98	-0.080
360.20	-0.065
360.42	-0.091
360.63	-0.127
360.85	-0.078
361.07	-0.086
361.29	-0.056
361.50	-0.043
361.72	-0.014
361.94	-0.036
362.15	-0.040
362.37	-0.039
362.59	-0.028
362.81	-0.018
363.02	-0.013
363.24	-0.032
363.46	-0.017
363.68	-0.041
363.89	-0.018
364.11	-0.009
364.33	0.016
364.54	0.044
364.76	0.050
364.98	0.068
365.20	0.066
365.41	0.087
365.63	0.112
365.85	0.077
366.06	0.102
366.28	0.062
366.50	0.057
366.71	0.070
366.93	0.028
367.15	0.041
367.37	0.023
367.58	0.044
367.80	0.026
368.02	0.025
368.23	0.056
368.45	0.020
368.67	0.033
368.88	0.018
369.10	-0.003
369.32	-0.018
369.53	0.003
369.75	0.002
369.97	0.005
370.19	0.010
370.40	0.007
370.62	-0.005
370.84	0.006
371.05	-0.001
371.27	0.011
371.49	0.038
371.70	0.062
371.92	0.040
372.14	0.014
372.35	0.001
372.57	-0.014
372.79	-0.059
373.00	-0.074
373.22	-0.058
373.44	-0.056
373.65	-0.038
373.87	-0.033
374.09	-0.052
374.30	-0.071
374.52	-0.035
374.74	-0.035
374.95	-0.025
375.17	0.014
375.39	0.037
375.60	0.023
375.82	-0.004
376.04	-0.006
376.25	-0.037
376.47	-0.014
376.68	0.019
376.90	0.029
377.12	0.041
377.33	0.045
377.55	0.057
377.77	0.055
377.98	0.092
378.20	0.124
378.42	0.117
378.63	0.138
378.85	0.139
379.07	0.137
379.28	0.151
379.50	0.156
379.71	0.163
379.93	0.173
380.15	0.160
380.36	0.141
380.58	0.110
380.80	0.100
381.01	0.098
381.23	0.101
381.44	0.095
381.66	0.078
381.88	0.057
382.09	0.048
382.31	0.034
382.53	0.049
382.74	0.061
382.96	0.079
383.17	0.098
383.39	0.091
383.61	0.078
383.82	0.063
384.04	0.067
384.25	0.083
384.47	0.091
384.69	0.122
384.90	0.102
385.12	0.124
385.33	0.110
385.55	0.096
385.77	0.090
385.98	0.085
386.20	0.105
386.41	0.114
386.63	0.115
386.85	0.117
387.06	0.094
387.28	0.117
387.49	0.102
387.71	0.130
387.93	0.127
388.14	0.149
388.36	0.175
388.57	0.169
388.79	0.160
389.01	0.176
389.22	0.183
389.44	0.219
389.65	0.197
389.87	0.220
390.08	0.238
390.30	0.235
390.52	0.240
390.73	0.236
390.95	0.237
391.16	0.243
391.38	0.236
391.59	0.232
391.81	0.204
392.03	0.221
392.24	0.207
392.46	0.177
392.67	0.182
392.89	0.159
393.10	0.163
393.32	0.183
393.53	0.185
393.75	0.165
393.97	0.165
394.18	0.173
394.40	0.168
394.61	0.163
394.83	0.181
395.04	0.213
395.26	0.226
395.47	0.222
395.69	0.210
395.91	0.218
396.12	0.252
396.34	0.252
396.55	0.242
396.77	0.235
396.98	0.229
397.20	0.229
397.41	0.212
397.63	0.210
397.84	0.199
398.06	0.175
398.27	0.164
398.49	0.154
398.71	0.163
398.92	0.171
399.14	0.173
399.35	0.188
399.57	0.179
399.78	0.184
400.00	0.186
400.21	0.188
400.43	0.206
400.64	0.204
400.86	0.201
401.07	0.186
401.29	0.182
401.50	0.183
401.72	0.177
401.93	0.176
402.15	0.169
402.36	0.179
402.58	0.179
402.79	0.182
403.01	0.191
403.22	0.192
403.44	0.215
403.65	0.224
403.87	0.227
404.08	0.224
404.30	0.226
404.51	0.234
404.73	0.237
404.94	0.249
405.16	0.256
405.37	0.250
405.59	0.251
405.80	0.234
406.02	0.229
406.23	0.235
406.45	0.242
406.66	0.248
406.88	0.248
407.09	0.241
407.31	0.227
407.52	0.223
407.74	0.223
407.95	0.231
408.17	0.237
408.38	0.237
408.60	0.234
408.81	0.231
409.03	0.214
409.24	0.209
409.45	0.210
409.67	0.218
409.88	0.222
410.10	0.216
410.31	0.214
410.53	0.216
410.74	0.225
410.96	0.227
411.17	0.230
411.39	0.238
411.60	0.233
411.82	0.220
412.03	0.230
412.24	0.226
412.46	0.229
412.67	0.239
412.89	0.243
413.10	0.243
413.32	0.244
413.53	0.242
413.75	0.243
413.96	0.239
414.17	0.252
414.39	0.245
414.60	0.253
414.82	0.260
415.03	0.240
415.25	0.238
415.46	0.236
415.68	0.240
415.89	0.243
416.10	0.253
416.32	0.255
416.53	0.245
416.75	0.239
416.96	0.236
417.18	0.235
417.39	0.244
417.60	0.238
417.82	0.235
418.03	0.227
418.25	0.228
418.46	0.212
418.67	0.215
418.89	0.216
419.10	0.220
419.32	0.216
419.53	0.213
419.75	0.215
419.96	0.216
420.17	0.213
420.39	0.217
420.60	0.216
420.82	0.226
421.03	0.232
421.24	0.226
421.46	0.223
421.67	0.220
421.89	0.227
422.10	0.223
422.31	0.223
422.53	0.219
422.74	0.219
422.96	0.219
423.17	0.222
423.38	0.221
423.60	0.231
423.81	0.226
424.03	0.228
424.24	0.224
424.45	0.226
424.67	0.225
424.88	0.234
425.09	0.225
425.31	0.225
425.52	0.221
425.74	0.223
425.95	0.221
426.16	0.227
426.38	0.225
426.59	0.226
426.80	0.230
427.02	0.231
427.23	0.229
427.45	0.235
427.66	0.227
427.87	0.223
428.09	0.223
428.30	0.224
428.51	0.222
428.73	0.224
428.94	0.224
429.15	0.219
429.37	0.220
429.58	0.219
429.79	0.224
430.01	0.232
430.22	0.235
430.44	0.232
430.65	0.233
430.86	0.230
431.08	0.233
431.29	0.233
431.50	0.234
431.72	0.233
431.93	0.231
432.14	0.227
432.36	0.227
432.57	0.227
432.78	0.228
433.00	0.230
433.21	0.233
433.42	0.232
433.64	0.233
433.85	0.235
434.06	0.233
434.28	0.234
434.49	0.238
434.70	0.232
434.92	0.228
435.13	0.231
435.34	0.227
435.56	0.228
435.77	0.226
435.98	0.223
436.20	0.221
436.41	0.223
436.62	0.220
436.83	0.216
437.05	0.221
437.26	0.226
437.47	0.226
437.69	0.230
437.90	0.230
438.11	0.228
438.33	0.229
438.54	0.227
438.75	0.223
438.97	0.229
439.18	0.230
439.39	0.230
439.60	0.226
439.82	0.225
440.03	0.223
440.24	0.221
440.46	0.224
440.67	0.227
440.88	0.225
441.10	0.226
441.31	0.225
441.52	0.221
441.73	0.216
441.95	0.215
442.16	0.212
442.37	0.213
442.58	0.212
442.80	0.211
443.01	0.207
443.22	0.208
443.44	0.211
443.65	0.208
443.86	0.205
444.07	0.210
444.29	0.211
444.50	0.212
444.71	0.211
444.92	0.211
445.14	0.211
445.35	0.215
445.56	0.217
445.78	0.213
445.99	0.214
446.20	0.216
446.41	0.214
446.63	0.212
446.84	0.210
447.05	0.208
447.26	0.208
447.48	0.203
447.69	0.203
447.90	0.200
448.11	0.201
448.33	0.197
448.54	0.197
448.75	0.198
448.96	0.204
449.18	0.205
449.39	0.205
449.60	0.203
449.81	0.204
450.03	0.199
450.24	0.198
450.45	0.197
450.66	0.202
450.87	0.201
451.09	0.199
451.30	0.193
451.51	0.194
451.72	0.192
451.94	0.193
452.15	0.194
452.36	0.195
452.57	0.195
452.78	0.194
453.00	0.192
453.21	0.196
453.42	0.196
453.63	0.198
453.85	0.200
454.06	0.204
454.27	0.204
454.48	0.205
454.69	0.207
454.91	0.210
455.12	0.212
455.33	0.213
455.54	0.212
455.75	0.213
455.97	0.211
456.18	0.208
456.39	0.204
456.60	0.201
456.81	0.203
457.03	0.203
457.24	0.202
457.45	0.202
457.66	0.201
457.87	0.199
458.09	0.198
458.30	0.199
458.51	0.200
458.72	0.203
458.93	0.207
459.15	0.208
459.36	0.209
459.57	0.207
459.78	0.209
459.99	0.210
460.20	0.213
460.42	0.216
460.63	0.220
460.84	0.222
461.05	0.223
461.26	0.224
461.47	0.224
461.69	0.224
461.90	0.226
462.11	0.229
462.32	0.230
462.53	0.229
462.74	0.230
462.96	0.227
463.17	0.228
463.38	0.230
463.59	0.230
463.80	0.230
464.01	0.232
464.23	0.232
464.44	0.230
464.65	0.233
464.86	0.236
465.07	0.238
465.28	0.240
465.49	0.241
465.71	0.242
465.92	0.246
466.13	0.245
466.34	0.247
466.55	0.249
466.76	0.250
466.97	0.249
467.19	0.249
467.40	0.248
467.61	0.249
467.82	0.250
468.03	0.250
468.24	0.249
468.45	0.251
468.66	0.253
468.88	0.255
469.09	0.257
469.30	0.260
469.51	0.262
469.72	0.263
469.93	0.264
470.14	0.265
470.35	0.266
470.57	0.266
470.78	0.267
470.99	0.267
471.20	0.267
471.41	0.265
471.62	0.265
471.83	0.265
472.04	0.267
472.25	0.266
472.47	0.266
472.68	0.267
472.89	0.269
473.10	0.268
473.31	0.268
473.52	0.269
473.73	0.270
473.94	0.270
474.15	0.271
474.36	0.272
474.57	0.272
474.79	0.271
475.00	0.273
475.21	0.273
475.42	0.273
475.63	0.271
475.84	0.270
476.05	0.268
476.26	0.268
476.47	0.268
476.68	0.267
476.89	0.267
477.10	0.267
477.32	0.265
477.53	0.263
477.74	0.262
477.95	0.263
478.16	0.263
478.37	0.265
478.58	0.265
478.79	0.264
479.00	0.263
479.21	0.261
479.42	0.261
479.63	0.260
479.84	0.261
480.05	0.259
480.26	0.259
480.47	0.257
480.69	0.256
480.90	0.255
481.11	0.253
481.32	0.251
481.53	0.251
481.74	0.249
481.95	0.248
482.16	0.246
482.37	0.245
482.58	0.244
482.79	0.242
483.00	0.241
483.21	0.239
483.42	0.238
483.63	0.237
483.84	0.235
484.05	0.233
484.26	0.232
484.47	0.230
484.68	0.230
484.89	0.228
485.10	0.226
485.31	0.224
485.52	0.223
485.73	0.222
485.94	0.220
486.15	0.218
486.37	0.215
486.58	0.214
486.79	0.212
487.00	0.209
487.21	0.207
487.42	0.204
487.63	0.202
487.84	0.201
488.05	0.199
488.26	0.196
488.47	0.193
488.68	0.192
488.89	0.189
489.10	0.187
489.31	0.185
489.52	0.183
489.73	0.182
489.94	0.179
490.15	0.178
490.36	0.175
490.57	0.173
490.78	0.170
490.99	0.168
491.20	0.166
491.41	0.164
491.62	0.162
491.83	0.160
492.04	0.158
492.25	0.155
492.45	0.152
492.66	0.150
492.87	0.149
493.08	0.147
493.29	0.145
493.50	0.143
493.71	0.142
493.92	0.141
494.13	0.139
494.34	0.138
494.55	0.137
494.76	0.135
494.97	0.134
495.18	0.132
495.39	0.131
495.60	0.129
495.81	0.126
496.02	0.124
496.23	0.122
496.44	0.119
496.65	0.116
496.86	0.114
497.07	0.113
497.28	0.111
497.49	0.109
497.70	0.108
497.91	0.107
498.12	0.106
498.32	0.105
498.53	0.104
498.74	0.103
498.95	0.101
499.16	0.100
499.37	0.098
499.58	0.097
499.79	0.097
500.00	0.096
500.21	0.095
500.42	0.092
500.63	0.091
500.84	0.089
501.05	0.088
501.26	0.086
501.46	0.085
501.67	0.084
501.88	0.082
502.09	0.081
502.30	0.080
502.51	0.078
502.72	0.077
502.93	0.076
503.14	0.076
503.35	0.073
503.56	0.074
503.77	0.072
503.97	0.071
504.18	0.070
504.39	0.069
504.60	0.068
504.81	0.067
505.02	0.066
505.23	0.066
505.44	0.065
505.65	0.065
505.86	0.064
506.07	0.063
506.27	0.063
506.48	0.062
506.69	0.061
506.90	0.060
507.11	0.060
507.32	0.059
507.53	0.058
507.74	0.057
507.95	0.056
508.15	0.056
508.36	0.055
508.57	0.055
508.78	0.055
508.99	0.054
509.20	0.053
509.41	0.052
509.62	0.052
509.82	0.051
510.03	0.050
510.24	0.050
510.45	0.049
510.66	0.049
510.87	0.048
511.08	0.048
511.29	0.048
511.49	0.047
511.70	0.047
511.91	0.047
512.12	0.047
512.33	0.047
512.54	0.047
512.75	0.046
512.95	0.046
513.16	0.046
513.37	0.046
513.58	0.044
513.79	0.044
514.00	0.044
514.20	0.044
514.41	0.043
514.62	0.043
514.83	0.043
515.04	0.042
515.25	0.042
515.46	0.042
515.66	0.041
515.87	0.041
516.08	0.041
516.29	0.041
516.50	0.041
516.71	0.041
516.91	0.041
517.12	0.040
517.33	0.041
517.54	0.040
517.75	0.040
517.95	0.040
518.16	0.040
518.37	0.040
518.58	0.039
518.79	0.039
519.00	0.039
519.20	0.039
519.41	0.039
519.62	0.038
519.83	0.038
520.04	0.038
520.24	0.038
520.45	0.038
520.66	0.037
520.87	0.037
521.08	0.037
521.28	0.036
521.49	0.037
521.70	0.036
521.91	0.037
522.12	0.037
522.32	0.036
522.53	0.036
522.74	0.036
522.95	0.036
523.16	0.036
523.36	0.035
523.57	0.035
523.78	0.035
523.99	0.034
524.20	0.034
524.40	0.034
524.61	0.034
524.82	0.034
525.03	0.034
525.23	0.034
525.44	0.033
525.65	0.034
525.86	0.034
526.06	0.034
526.27	0.034
526.48	0.034
526.69	0.034
526.90	0.034
527.10	0.034
527.31	0.034
527.52	0.034
527.73	0.034
527.93	0.034
528.14	0.034
528.35	0.033
528.56	0.033
528.76	0.033
528.97	0.033
529.18	0.033
529.39	0.032
529.59	0.032
529.80	0.032
530.01	0.032
530.22	0.032
530.42	0.031
530.63	0.031
530.84	0.030
531.05	0.031
531.25	0.031
531.46	0.031
531.67	0.031
531.88	0.031
532.08	0.030
532.29	0.030
532.50	0.030
532.70	0.030
532.91	0.030
533.12	0.031
533.33	0.030
533.53	0.031
533.74	0.031
533.95	0.030
534.15	0.030
534.36	0.030
534.57	0.030
534.78	0.031
534.98	0.031
535.19	0.031
535.40	0.031
535.60	0.031
535.81	0.031
536.02	0.031
536.23	0.031
536.43	0.031
536.64	0.031
536.85	0.031
537.05	0.031
537.26	0.030
537.47	0.031
537.67	0.031
537.88	0.030
538.09	0.030
538.30	0.031
538.50	0.031
538.71	0.030
538.92	0.030
539.12	0.030
539.33	0.030
539.54	0.029
539.74	0.030
539.95	0.029
540.16	0.029
540.36	0.029
540.57	0.028
540.78	0.028
540.98	0.028
541.19	0.028
541.40	0.028
541.60	0.028
541.81	0.028
542.02	0.027
542.22	0.028
542.43	0.028
542.64	0.028
542.84	0.029
543.05	0.028
543.26	0.028
543.46	0.028
543.67	0.028
543.88	0.029
544.08	0.029
544.29	0.029
544.50	0.028
544.70	0.028
544.91	0.028
545.12	0.028
545.32	0.028
545.53	0.028
545.74	0.028
545.94	0.028
546.15	0.027
546.35	0.027
546.56	0.027
546.77	0.027
546.97	0.027
547.18	0.027
547.39	0.027
547.59	0.027
547.80	0.027
548.01	0.027
548.21	0.027
548.42	0.028
548.62	0.028
548.83	0.028
549.04	0.028
549.24	0.028
549.45	0.029
549.65	0.029
549.86	0.029
550.07	0.028
550.27	0.028
550.48	0.029
550.69	0.028
550.89	0.028
551.10	0.028
551.30	0.028
551.51	0.028
551.72	0.028
551.92	0.028
552.13	0.027
552.33	0.028
552.54	0.027
552.75	0.027
552.95	0.026
553.16	0.026
553.36	0.025
553.57	0.025
553.78	0.025
553.98	0.025
554.19	0.025
554.39	0.025
554.60	0.025
554.80	0.025
555.01	0.025
555.22	0.025
555.42	0.026
555.63	0.025
555.83	0.025
556.04	0.025
556.25	0.025
556.45	0.025
556.66	0.025
556.86	0.026
557.07	0.025
557.27	0.025
557.48	0.025
557.68	0.025
557.89	0.025
558.10	0.025
558.30	0.025
558.51	0.025
558.71	0.025
558.92	0.025
559.12	0.024
559.33	0.024
559.54	0.024
559.74	0.024
559.95	0.023
560.15	0.024
560.36	0.024
560.56	0.024
560.77	0.024
560.97	0.024
561.18	0.024
561.38	0.024
561.59	0.024
561.79	0.024
562.00	0.024
562.21	0.025
562.41	0.024
562.62	0.024
562.82	0.024
563.03	0.024
563.23	0.024
563.44	0.024
563.64	0.023
563.85	0.023
564.05	0.024
564.26	0.024
564.46	0.023
564.67	0.023
564.87	0.024
565.08	0.023
565.28	0.024
565.49	0.024
565.69	0.023
565.90	0.024
566.10	0.023
566.31	0.023
566.51	0.023
566.72	0.023
566.92	0.023
567.13	0.023
567.33	0.023
567.54	0.023
567.74	0.023
567.95	0.023
568.15	0.023
568.36	0.023
568.56	0.023
568.77	0.023
568.97	0.023
569.18	0.023
569.38	0.023
569.59	0.023
569.79	0.022
570.00	0.021
570.20	0.021
570.41	0.021
570.61	0.021
570.82	0.022
571.02	0.022
571.23	0.021
571.43	0.022
571.64	0.022
571.84	0.022
572.05	0.022
572.25	0.023
572.45	0.023
572.66	0.023
572.86	0.022
573.07	0.022
573.27	0.023
573.48	0.023
573.68	0.022
573.89	0.023
574.09	0.023
574.30	0.022
574.50	0.022
574.70	0.022
574.91	0.022
575.11	0.022
575.32	0.022
575.52	0.022
575.73	0.022
575.93	0.023
576.14	0.023
576.34	0.022
576.54	0.022
576.75	0.022
576.95	0.022
577.16	0.022
577.36	0.022
577.57	0.022
577.77	0.022
577.97	0.021
578.18	0.021
578.38	0.021
578.59	0.021
578.79	0.021
579.00	0.021
579.20	0.021
579.40	0.021
579.61	0.021
579.81	0.021
580.02	0.021
580.22	0.021
580.42	0.021
580.63	0.022
580.83	0.022
581.04	0.022
581.24	0.022
581.45	0.022
581.65	0.021
581.85	0.021
582.06	0.021
582.26	0.021
582.47	0.021
582.67	0.021
582.87	0.020
583.08	0.021
583.28	0.021
583.48	0.021
583.69	0.021
583.89	0.022
584.10	0.022
584.30	0.021
584.50	0.022
584.71	0.022
584.91	0.022
585.12	0.022
585.32	0.021
585.52	0.021
585.73	0.021
585.93	0.021
586.13	0.020
586.34	0.020
586.54	0.020
586.75	0.020
586.95	0.020
587.15	0.020
587.36	0.020
587.56	0.020
587.76	0.020
587.97	0.020
588.17	0.020
588.37	0.021
588.58	0.020
588.78	0.021
588.98	0.021
589.19	0.021
589.39	0.021
589.60	0.021
589.80	0.021
590.00	0.021
590.21	0.021
590.41	0.021
590.61	0.021
590.82	0.021
591.02	0.020
591.22	0.020
591.43	0.020
591.63	0.020
591.83	0.020
592.04	0.019
592.24	0.019
592.44	0.020
592.65	0.020
592.85	0.020
593.05	0.020
593.26	0.021
593.46	0.021
593.66	0.020
593.86	0.020
594.07	0.020
594.27	0.020
594.47	0.020
594.68	0.020
594.88	0.020
595.08	0.019
595.29	0.020
595.49	0.019
595.69	0.019
595.90	0.020
596.10	0.020
596.30	0.020
596.50	0.020
596.71	0.020
596.91	0.020
597.11	0.020
597.32	0.020
597.52	0.020
597.72	0.020
597.93	0.020
598.13	0.020
598.33	0.020
598.53	0.020
598.74	0.020
598.94	0.020
599.14	0.020
599.35	0.020
599.55	0.020
599.75	0.021
599.95	0.021
600.16	0.020
600.36	0.019
600.56	0.019
600.76	0.019
600.97	0.020
601.17	0.020
601.37	0.019
601.58	0.019
601.78	0.019
601.98	0.019
602.18	0.018
602.39	0.019
602.59	0.019
602.79	0.019
602.99	0.019
603.20	0.018
603.40	0.018
603.60	0.018
603.80	0.018
604.01	0.018
604.21	0.019
604.41	0.019
604.61	0.019
604.82	0.019
605.02	0.019
605.22	0.019
605.42	0.019
605.62	0.020
605.83	0.020
606.03	0.020
606.23	0.020
606.43	0.020
606.64	0.020
606.84	0.020
607.04	0.020
607.24	0.020
607.45	0.020
607.65	0.020
607.85	0.020
608.05	0.020
608.25	0.020
608.46	0.020
608.66	0.020
608.86	0.020
609.06	0.020
609.26	0.020
609.47	0.020
609.67	0.020
609.87	0.020
610.07	0.020
610.28	0.020
610.48	0.020
610.68	0.020
610.88	0.021
611.08	0.020
611.29	0.020
611.49	0.020
611.69	0.020
611.89	0.020
612.09	0.020
612.29	0.020
612.50	0.020
612.70	0.019
612.90	0.019
613.10	0.019
613.30	0.019
613.51	0.019
613.71	0.019
613.91	0.019
614.11	0.019
614.31	0.019
614.51	0.018
614.72	0.019
614.92	0.019
615.12	0.019
615.32	0.019
615.52	0.020
615.72	0.020
615.93	0.019
616.13	0.019
616.33	0.019
616.53	0.020
616.73	0.020
616.93	0.020
617.14	0.020
617.34	0.020
617.54	0.020
617.74	0.020
617.94	0.020
618.14	0.020
618.34	0.020
618.55	0.020
618.75	0.020
618.95	0.020
619.15	0.020
619.35	0.020
619.55	0.019
619.75	0.019
619.96	0.019
620.16	0.019
620.36	0.018
620.56	0.019
620.76	0.018
620.96	0.019
621.16	0.019
621.36	0.019
621.57	0.019
621.77	0.019
621.97	0.019
622.17	0.019
622.37	0.019
622.57	0.019
622.77	0.019
622.97	0.019
623.18	0.019
623.38	0.019
623.58	0.019
623.78	0.019
623.98	0.019
624.18	0.019
624.38	0.019
624.58	0.019
624.78	0.020
624.98	0.020
625.19	0.019
625.39	0.019
625.59	0.020
625.79	0.019
625.99	0.020
626.19	0.020
626.39	0.020
626.59	0.020
626.79	0.020
626.99	0.020
627.19	0.020
627.40	0.020
627.60	0.020
627.80	0.020
628.00	0.020
628.20	0.020
628.40	0.020
628.60	0.020
628.80	0.019
629.00	0.019
629.20	0.019
629.40	0.019
629.60	0.019
629.80	0.019
630.00	0.019
630.20	0.019
630.41	0.019
630.61	0.019
630.81	0.019
631.01	0.019
631.21	0.019
631.41	0.019
631.61	0.018
631.81	0.018
632.01	0.018
632.21	0.018
632.41	0.018
632.61	0.019
632.81	0.019
633.01	0.018
633.21	0.019
633.41	0.019
633.61	0.019
633.81	0.019
634.01	0.019
634.21	0.019
634.41	0.018
634.61	0.019
634.81	0.018
635.01	0.018
635.22	0.018
635.42	0.018
635.62	0.018
635.82	0.018
636.02	0.018
636.22	0.018
636.42	0.018
636.62	0.018
636.82	0.018
637.02	0.018
637.22	0.018
637.42	0.018
637.62	0.019
637.82	0.019
638.02	0.019
638.22	0.019
638.42	0.019
638.62	0.019
638.82	0.019
639.02	0.019
639.22	0.020
639.42	0.020
639.62	0.019
639.82	0.019
640.02	0.019
640.22	0.019
640.42	0.019
640.62	0.019
640.82	0.019
641.02	0.019
641.22	0.019
641.42	0.019
641.61	0.019
641.81	0.019
642.01	0.019
642.21	0.019
642.41	0.020
642.61	0.020
642.81	0.020
643.01	0.020
643.21	0.020
643.41	0.019
643.61	0.019
643.81	0.020
644.01	0.020
644.21	0.019
644.41	0.019
644.61	0.018
644.81	0.018
645.01	0.018
645.21	0.018
645.41	0.018
645.61	0.018
645.81	0.018
646.01	0.018
646.21	0.018
646.40	0.018
646.60	0.019
646.80	0.019
647.00	0.020
647.20	0.020
647.40	0.019
647.60	0.019
647.80	0.019
648.00	0.019
648.20	0.019
648.40	0.019
648.60	0.019
648.80	0.019
649.00	0.019
649.20	0.019
649.39	0.019
649.59	0.019
649.79	0.019
649.99	0.019
650.19	0.019
650.39	0.019
650.59	0.019
650.79	0.019
650.99	0.019
651.19	0.019
651.39	0.018
651.58	0.018
651.78	0.018
651.98	0.018
652.18	0.018
652.38	0.019
652.58	0.018
652.78	0.018
652.98	0.018
653.18	0.018
653.38	0.018
653.57	0.019
653.77	0.019
653.97	0.019
654.17	0.019
654.37	0.019
654.57	0.019
654.77	0.019
654.97	0.019
655.16	0.019
655.36	0.019
655.56	0.019
655.76	0.019
655.96	0.019
656.16	0.018
656.36	0.018
656.56	0.018
656.75	0.018
656.95	0.018
657.15	0.018
657.35	0.018
657.55	0.018
657.75	0.018
657.95	0.018
658.14	0.019
658.34	0.019
658.54	0.018
658.74	0.018
658.94	0.019
659.14	0.019
659.34	0.019
659.53	0.018
659.73	0.018
659.93	0.018
660.13	0.018
660.33	0.018
660.53	0.018
660.72	0.018
660.92	0.018
661.12	0.018
661.32	0.018
661.52	0.018
661.72	0.018
661.91	0.018
662.11	0.018
662.31	0.017
662.51	0.017
662.71	0.018
662.90	0.018
663.10	0.018
663.30	0.017
663.50	0.018
663.70	0.017
663.90	0.018
664.09	0.018
664.29	0.018
664.49	0.018
664.69	0.018
664.89	0.018
665.08	0.018
665.28	0.019
665.48	0.019
665.68	0.019
665.88	0.019
666.07	0.018
666.27	0.018
666.47	0.018
666.67	0.018
666.87	0.017
667.06	0.018
667.26	0.018
667.46	0.017
667.66	0.017
667.85	0.017
668.05	0.017
668.25	0.018
668.45	0.018
668.65	0.018
668.84	0.018
669.04	0.018
669.24	0.018
669.44	0.018
669.63	0.018
669.83	0.018
670.03	0.018
670.23	0.018
670.42	0.018
670.62	0.018
670.82	0.018
671.02	0.018
671.22	0.018
671.41	0.018
671.61	0.017
671.81	0.018
672.01	0.018
672.20	0.018
672.40	0.018
672.60	0.018
672.80	0.018
672.99	0.018
673.19	0.018
673.39	0.018
673.58	0.019
673.78	0.019
673.98	0.019
674.18	0.019
674.37	0.019
674.57	0.019
674.77	0.019
674.97	0.019
675.16	0.019
675.36	0.018
675.56	0.018
675.75	0.018
675.95	0.018
676.15	0.018
676.35	0.017
676.54	0.018
676.74	0.018
676.94	0.018
677.13	0.017
677.33	0.018
677.53	0.018
677.73	0.018
677.92	0.018
678.12	0.018
678.32	0.018
678.51	0.018
678.71	0.017
678.91	0.018
679.11	0.018
679.30	0.018
679.50	0.018
679.70	0.018
679.89	0.018
680.09	0.018
680.29	0.018
680.48	0.018
680.68	0.018
680.88	0.018
681.07	0.018
681.27	0.018
681.47	0.018
681.66	0.018
681.86	0.018
682.06	0.018
682.25	0.018
682.45	0.018
682.65	0.018
682.84	0.018
683.04	0.018
683.24	0.018
683.43	0.018
683.63	0.018
683.83	0.018
684.02	0.018
684.22	0.018
684.42	0.018
684.61	0.018
684.81	0.018
685.01	0.018
685.20	0.018
685.40	0.018
685.60	0.018
685.79	0.018
685.99	0.018
686.19	0.019
686.38	0.018
686.58	0.018
686.77	0.018
686.97	0.018
687.17	0.018
687.36	0.018
687.56	0.018
687.76	0.018
687.95	0.018
688.15	0.017
688.34	0.017
688.54	0.017
688.74	0.017
688.93	0.017
689.13	0.017
689.33	0.018
689.52	0.018
689.72	0.018
689.91	0.018
690.11	0.017
690.31	0.017
690.50	0.018
690.70	0.018
690.89	0.017
691.09	0.018
691.29	0.017
691.48	0.017
691.68	0.017
691.87	0.018
692.07	0.018
692.27	0.018
692.46	0.018
692.66	0.018
692.85	0.018
693.05	0.018
693.25	0.018
693.44	0.018
693.64	0.018
693.83	0.018
694.03	0.018
694.22	0.018
694.42	0.018
694.62	0.018
694.81	0.018
695.01	0.018
695.20	0.018
695.40	0.018
695.59	0.018
695.79	0.018
695.99	0.018
696.18	0.018
696.38	0.018
696.57	0.018
696.77	0.018
696.96	0.018
697.16	0.018
697.36	0.018
697.55	0.018
697.75	0.018
697.94	0.018
698.14	0.017
698.33	0.018
698.53	0.018
698.72	0.017
698.92	0.017
699.11	0.017
699.31	0.017
699.51	0.017
699.70	0.017
699.90	0.017
700.09	0.017
700.29	0.017
700.48	0.017
700.68	0.017
700.87	0.017
701.07	0.017
701.26	0.017
701.46	0.017
701.65	0.018
701.85	0.017
702.04	0.017
702.24	0.018
702.43	0.018
702.63	0.018
702.82	0.018
703.02	0.018
703.21	0.017
703.41	0.017
703.60	0.017
703.80	0.017
703.99	0.017
704.19	0.017
704.38	0.017
704.58	0.016
704.77	0.016
704.97	0.016
705.16	0.017
705.36	0.017
705.55	0.017
705.75	0.017
705.94	0.017
706.14	0.017
706.33	0.017
706.53	0.017
706.72	0.017
706.92	0.017
707.11	0.017
707.31	0.017
707.50	0.017
707.70	0.017
707.89	0.017
708.09	0.018
708.28	0.018
708.48	0.018
708.67	0.017
708.86	0.017
709.06	0.017
709.25	0.017
709.45	0.017
709.64	0.017
709.84	0.017
710.03	0.017
710.23	0.017
710.42	0.017
710.62	0.017
710.81	0.017
711.00	0.017
711.20	0.017
711.39	0.017
711.59	0.017
711.78	0.017
711.98	0.017
712.17	0.017
712.37	0.017
712.56	0.017
712.75	0.017
712.95	0.017
713.14	0.017
713.34	0.017
713.53	0.017
713.73	0.016
713.92	0.017
714.11	0.016
714.31	0.016
714.50	0.016
714.70	0.016
714.89	0.016
715.08	0.016
715.28	0.016
715.47	0.016
715.67	0.016
715.86	0.016
716.06	0.016
716.25	0.016
716.44	0.016
716.64	0.015
716.83	0.015
717.03	0.015
717.22	0.015
717.41	0.015
717.61	0.014
717.80	0.014
717.99	0.015
718.19	0.014
718.38	0.014
718.58	0.014
718.77	0.014
718.96	0.014
719.16	0.014
719.35	0.014
719.55	0.014
719.74	0.014
719.93	0.015
720.13	0.015
720.32	0.015
720.51	0.015
720.71	0.015
720.90	0.015
721.10	0.015
721.29	0.014
721.48	0.014
721.68	0.014
721.87	0.014
722.06	0.014
722.26	0.014
722.45	0.013
722.64	0.013
722.84	0.013
723.03	0.013
723.22	0.013
723.42	0.013
723.61	0.013
723.80	0.013
724.00	0.013
724.19	0.013
724.38	0.013
724.58	0.013
724.77	0.013
724.96	0.013
725.16	0.012
725.35	0.012
725.54	0.012
725.74	0.012
725.93	0.012
726.12	0.012
726.32	0.012
726.51	0.012
726.70	0.012
726.90	0.012
727.09	0.012
727.28	0.012
727.48	0.012
727.67	0.013
727.86	0.012
728.06	0.012
728.25	0.012
728.44	0.012
728.64	0.012
728.83	0.012
729.02	0.012
729.21	0.012
729.41	0.012
729.60	0.012
729.79	0.011
729.99	0.011
730.18	0.011
730.37	0.010
730.56	0.010
730.76	0.010
730.95	0.010
731.14	0.010
731.34	0.010
731.53	0.010
731.72	0.010
731.91	0.010
732.11	0.010
732.30	0.010
732.49	0.010
732.69	0.010
732.88	0.010
733.07	0.010
733.26	0.010
733.46	0.010
733.65	0.010
733.84	0.009
734.03	0.009
734.23	0.009
734.42	0.009
734.61	0.009
734.80	0.009
735.00	0.009
735.19	0.009
735.38	0.009
735.57	0.009
735.77	0.009
735.96	0.009
736.15	0.009
736.34	0.009
736.54	0.009
736.73	0.009
736.92	0.009
737.11	0.009
737.31	0.008
737.50	0.008
737.69	0.008
737.88	0.008
738.07	0.008
738.27	0.009
738.46	0.009
738.65	0.009
738.84	0.009
739.04	0.009
739.23	0.009
739.42	0.009
739.61	0.009
739.80	0.009
740.00	0.009
740.19	0.009
740.38	0.009
740.57	0.009
740.76	0.009
740.96	0.009
741.15	0.009
741.34	0.009
741.53	0.009
741.72	0.009
741.92	0.009
742.11	0.009
742.30	0.009
742.49	0.010
742.68	0.010
742.88	0.010
743.07	0.010
743.26	0.010
743.45	0.010
743.64	0.010
743.84	0.010
744.03	0.010
744.22	0.010
744.41	0.010
744.60	0.010
744.79	0.010
744.99	0.010
745.18	0.010
745.37	0.010
745.56	0.010
745.75	0.010
745.94	0.009
746.14	0.009
746.33	0.009
746.52	0.009
746.71	0.009
746.90	0.009
747.09	0.009
747.28	0.009
747.48	0.010
747.67	0.010
747.86	0.010
748.05	0.010
748.24	0.010
748.43	0.010
748.62	0.010
748.82	0.010
749.01	0.010
749.20	0.010
749.39	0.010
749.58	0.010
749.77	0.010
749.96	0.010
750.16	0.011
750.35	0.011
750.54	0.011
750.73	0.011
750.92	0.011
751.11	0.011
751.30	0.012
751.49	0.011
751.68	0.011
751.88	0.011
752.07	0.011
752.26	0.011
752.45	0.011
752.64	0.011
752.83	0.011
753.02	0.010
753.21	0.011
753.40	0.010
753.60	0.010
753.79	0.010
753.98	0.011
754.17	0.011
754.36	0.011
754.55	0.011
754.74	0.011
754.93	0.011
755.12	0.011
755.31	0.011
755.50	0.011
755.70	0.011
755.89	0.012
756.08	0.012
756.27	0.012
756.46	0.012
756.65	0.012
756.84	0.012
757.03	0.013
757.22	0.012
757.41	0.013
757.60	0.013
757.79	0.013
757.98	0.013
758.17	0.012
758.36	0.012
758.56	0.012
758.75	0.013
758.94	0.012
759.13	0.012
759.32	0.013
759.51	0.013
759.70	0.012
759.89	0.012
760.08	0.012
760.27	0.012
760.46	0.012
760.65	0.012
760.84	0.012
761.03	0.012
761.22	0.012
761.41	0.012
761.60	0.012
761.79	0.012
761.98	0.013
762.17	0.013
762.36	0.013
762.55	0.013
762.74	0.013
762.93	0.013
763.12	0.013
763.31	0.013
763.50	0.013
763.69	0.013
763.88	0.013
764.07	0.013
764.26	0.012
764.45	0.012
764.64	0.012
764.83	0.012
765.02	0.012
765.21	0.011
765.40	0.011
765.59	0.011
765.78	0.011
765.97	0.011
766.16	0.011
766.35	0.011
766.54	0.011
766.73	0.011
766.92	0.011
767.11	0.011
767.30	0.011
767.49	0.011
767.68	0.011
767.87	0.011
768.06	0.010
768.25	0.010
768.44	0.010
768.63	0.010
768.82	0.010
769.01	0.010
769.20	0.010
769.39	0.010
769.58	0.010
769.77	0.010
769.96	0.010
770.15	0.010
770.34	0.010
770.53	0.010
770.72	0.009
770.91	0.009
771.10	0.009
771.29	0.010
771.47	0.009
771.66	0.009
771.85	0.009
772.04	0.009
772.23	0.009
772.42	0.009
772.61	0.009
772.80	0.009
772.99	0.009
773.18	0.009
773.37	0.009
773.56	0.010
773.75	0.009
773.94	0.010
774.13	0.010
774.31	0.009
774.50	0.010
774.69	0.009
774.88	0.010
775.07	0.010
775.26	0.010
775.45	0.010
775.64	0.010
775.83	0.009
776.02	0.009
776.21	0.009
776.40	0.009
776.58	0.009
776.77	0.009
776.96	0.009
777.15	0.008
777.34	0.008
777.53	0.008
777.72	0.008
777.91	0.008
778.10	0.008
778.28	0.008
778.47	0.008
778.66	0.007
778.85	0.008
779.04	0.008
779.23	0.008
779.42	0.008
779.61	0.008
779.79	0.009
779.98	0.008
780.17	0.008
780.36	0.009
780.55	0.009
780.74	0.009
780.93	0.009
781.12	0.009
781.30	0.009
781.49	0.009
781.68	0.009
781.87	0.009
782.06	0.009
782.25	0.009
782.44	0.009
782.62	0.009
782.81	0.009
783.00	0.009
783.19	0.009
783.38	0.009
783.57	0.009
783.75	0.009
783.94	0.009
784.13	0.009
784.32	0.009
784.51	0.008
784.70	0.008
784.88	0.009
785.07	0.008
785.26	0.008
785.45	0.008
785.64	0.008
785.83	0.008
786.01	0.008
786.20	0.008
786.39	0.008
786.58	0.008
786.77	0.008
786.95	0.008
787.14	0.008
787.33	0.008
787.52	0.008
787.71	0.009
787.90	0.009
788.08	0.009
788.27	0.009
788.46	0.009
788.65	0.009
788.84	0.009
789.02	0.010
789.21	0.010
789.40	0.009
789.59	0.010
789.77	0.010
789.96	0.010
790.15	0.010
790.34	0.010
790.53	0.010
790.71	0.010
790.90	0.009
791.09	0.009
791.28	0.009
791.46	0.009
791.65	0.009
791.84	0.009
792.03	0.009
792.22	0.009
792.40	0.009
792.59	0.009
792.78	0.010
792.97	0.010
793.15	0.010
793.34	0.010
793.53	0.011
793.72	0.010
793.90	0.010
794.09	0.010
794.28	0.011
794.47	0.011
794.65	0.011
794.84	0.011
795.03	0.011
795.22	0.011
795.40	0.011
795.59	0.010
795.78	0.011
795.97	0.011
796.15	0.011
796.34	0.010
796.53	0.010
796.71	0.011
796.90	0.011
797.09	0.011
797.28	0.011
797.46	0.011
797.65	0.011
797.84	0.011
798.02	0.011
798.21	0.011
798.40	0.011
798.59	0.011
798.77	0.011
798.96	0.011
799.15	0.010
799.33	0.010
799.52	0.011
799.71	0.011
799.90	0.011
800.08	0.011
800.27	0.011
800.46	0.011
800.64	0.011
800.83	0.011
801.02	0.011
801.20	0.011
801.39	0.011
801.58	0.011
801.76	0.011
801.95	0.011
802.14	0.011
802.32	0.011
802.51	0.011
802.70	0.011
802.88	0.011
803.07	0.011
803.26	0.011
803.44	0.010
803.63	0.010
803.82	0.010
804.00	0.010
804.19	0.010
804.38	0.010
804.56	0.010
804.75	0.010
804.94	0.010
805.12	0.011
805.31	0.011
805.50	0.011
805.68	0.011
805.87	0.011
806.06	0.011
806.24	0.011
806.43	0.011
806.62	0.011
806.80	0.011
806.99	0.011
807.17	0.011
807.36	0.011
807.55	0.011
807.73	0.011
807.92	0.011
808.11	0.011
808.29	0.011
808.48	0.011
808.66	0.011
808.85	0.011
809.04	0.011
809.22	0.011
809.41	0.011
809.59	0.011
809.78	0.011
809.97	0.011
810.15	0.011
810.34	0.011
810.53	0.012
810.71	0.011
810.90	0.012
811.08	0.011
811.27	0.011
811.45	0.011
811.64	0.011
811.83	0.011
812.01	0.011
812.20	0.011
812.38	0.011
812.57	0.011
812.76	0.012
812.94	0.011
813.13	0.011
813.31	0.011
813.50	0.011
813.68	0.011
813.87	0.011
814.06	0.011
814.24	0.011
814.43	0.011
814.61	0.011
814.80	0.011
814.98	0.011
815.17	0.011
815.36	0.011
815.54	0.011
815.73	0.011
815.91	0.011
816.10	0.011
816.28	0.011
816.47	0.011
816.65	0.011
816.84	0.010
817.03	0.011
817.21	0.011
817.40	0.011
817.58	0.010
817.77	0.010
817.95	0.010
818.14	0.010
818.32	0.010
818.51	0.010
818.69	0.011
818.88	0.011
819.06	0.011
819.25	0.011
819.43	0.011
819.62	0.011
819.80	0.011
819.99	0.011
820.18	0.011
820.36	0.011
820.55	0.011
820.73	0.011
820.92	0.011
821.10	0.011
821.29	0.011
821.47	0.011
821.66	0.011
821.84	0.011
822.03	0.010
822.21	0.010
822.40	0.011
822.58	0.011
822.77	0.011
822.95	0.011
823.14	0.010
823.32	0.010
823.50	0.010
823.69	0.010
823.87	0.010
824.06	0.010
824.24	0.010
824.43	0.010
824.61	0.009
824.80	0.010
824.98	0.010
825.17	0.009
825.35	0.009
825.54	0.009
825.72	0.009
825.91	0.009
826.09	0.009
826.28	0.009
826.46	0.009
826.64	0.010
826.83	0.009
827.01	0.009
827.20	0.009
827.38	0.009
827.57	0.009
827.75	0.009
827.94	0.009
828.12	0.009
828.31	0.008
828.49	0.008
828.67	0.008
828.86	0.008
829.04	0.008
829.23	0.008
829.41	0.007
829.60	0.007
829.78	0.007
829.96	0.007
830.15	0.007
830.33	0.007
830.52	0.007
830.70	0.007
830.88	0.007
831.07	0.007
831.25	0.007
831.44	0.007
831.62	0.007
831.81	0.006
831.99	0.006
832.17	0.006
832.36	0.006
832.54	0.006
832.73	0.006
832.91	0.006
833.09	0.006
833.28	0.006
833.46	0.006
833.65	0.006
833.83	0.006
834.01	0.006
834.20	0.006
834.38	0.006
834.56	0.006
834.75	0.006
834.93	0.006
835.12	0.006
835.30	0.005
835.48	0.005
835.67	0.005
835.85	0.005
836.03	0.005
836.22	0.005
836.40	0.005
836.59	0.004
836.77	0.004
836.95	0.004
837.14	0.004
837.32	0.004
837.50	0.005
837.69	0.005
837.87	0.005
838.05	0.005
838.24	0.005
838.42	0.005
838.60	0.005
838.79	0.005
838.97	0.005
839.15	0.006
839.34	0.005
839.52	0.005
839.70	0.005
839.89	0.005
840.07	0.005
840.25	0.005
840.44	0.005
840.62	0.005
840.80	0.005
840.99	0.005
841.17	0.004
841.35	0.004
841.54	0.004
841.72	0.004
841.90	0.004
842.09	0.004
842.27	0.003
842.45	0.003
842.64	0.003
842.82	0.003
843.00	0.003
843.19	0.003
843.37	0.003
843.55	0.003
843.73	0.003
843.92	0.004
844.10	0.004
844.28	0.004
844.47	0.004
844.65	0.004
844.83	0.004
845.01	0.004
845.20	0.005
845.38	0.004
845.56	0.005
845.75	0.005
845.93	0.004
846.11	0.004
846.29	0.004
846.48	0.004
846.66	0.004
846.84	0.004
847.02	0.004
847.21	0.004
847.39	0.004
847.57	0.004
847.76	0.004
847.94	0.004
848.12	0.004
848.30	0.004
848.49	0.003
848.67	0.004
848.85	0.003
849.03	0.003
849.22	0.003
849.40	0.003
849.58	0.003
849.76	0.003
849.95	0.003
850.13	0.003
850.31	0.003
850.49	0.004
850.67	0.004
850.86	0.004
851.04	0.004
851.22	0.004
851.40	0.004
851.59	0.004
851.77	0.004
851.95	0.004
852.13	0.004
852.31	0.004
852.50	0.003
852.68	0.004
852.86	0.003
853.04	0.003
853.23	0.003
853.41	0.003
853.59	0.002
853.77	0.003
853.95	0.003
854.14	0.002
854.32	0.002
854.50	0.002
854.68	0.002
854.86	0.002
855.04	0.002
855.23	0.002
855.41	0.002
855.59	0.003
855.77	0.002
855.95	0.002
856.14	0.002
856.32	0.002
856.50	0.002
856.68	0.002
856.86	0.002
857.04	0.002
857.23	0.002
857.41	0.002
857.59	0.002
857.77	0.002
857.95	0.002
858.13	0.002
858.32	0.002
858.50	0.002
858.68	0.002
858.86	0.002
859.04	0.002
859.22	0.002
859.41	0.002
859.59	0.002
859.77	0.002
859.95	0.002
860.13	0.002
860.31	0.002
860.49	0.002
860.68	0.001
860.86	0.002
861.04	0.002
861.22	0.002
861.40	0.002
861.58	0.002
861.76	0.002
861.94	0.002
862.13	0.002
862.31	0.002
862.49	0.002
862.67	0.002
862.85	0.002
863.03	0.002
863.21	0.002
863.39	0.002
863.57	0.002
863.76	0.002
863.94	0.002
864.12	0.002
864.30	0.002
864.48	0.002
864.66	0.002
864.84	0.002
865.02	0.002
865.20	0.002
865.38	0.002
865.57	0.002
865.75	0.002
865.93	0.003
866.11	0.002
866.29	0.002
866.47	0.002
866.65	0.002
866.83	0.002
867.01	0.002
867.19	0.002
867.37	0.002
867.55	0.002
867.73	0.002
867.92	0.002
868.10	0.002
868.28	0.003
868.46	0.003
868.64	0.004
868.82	0.004
869.00	0.004
869.18	0.004
869.36	0.004
869.54	0.004
869.72	0.004
869.90	0.004
870.08	0.004
870.26	0.004
870.44	0.004
870.62	0.004
870.80	0.004
870.98	0.005
871.16	0.005
871.34	0.005
871.53	0.005
871.71	0.005
871.89	0.005
872.07	0.005
872.25	0.005
872.43	0.006
872.61	0.005
872.79	0.005
872.97	0.005
873.15	0.005
873.33	0.005
873.51	0.006
873.69	0.006
873.87	0.006
874.05	0.006
874.23	0.006
874.41	0.006
874.59	0.006
874.77	0.006
874.95	0.007
875.13	0.007
875.31	0.007
875.49	0.006
875.67	0.006
875.85	0.006
876.03	0.006
876.21	0.006
876.39	0.006
876.57	0.006
876.75	0.006
876.93	0.006
877.11	0.006
877.29	0.005
877.47	0.006
877.65	0.006
877.82	0.006
878.00	0.006
878.18	0.006
878.36	0.006
878.54	0.005
878.72	0.005
878.90	0.005
879.08	0.005
879.26	0.006
879.44	0.005
879.62	0.005
879.80	0.005
879.98	0.005
880.16	0.004
880.34	0.005
880.52	0.005
880.70	0.005
880.88	0.005
881.06	0.004
881.24	0.004
881.42	0.004
881.59	0.004
881.77	0.004
881.95	0.004
882.13	0.004
882.31	0.004
882.49	0.004
882.67	0.004
882.85	0.004
883.03	0.004
883.21	0.004
883.39	0.004
883.57	0.005
883.75	0.005
883.92	0.005
884.10	0.005
884.28	0.005
884.46	0.005
884.64	0.004
884.82	0.004
885.00	0.004
885.18	0.004
885.36	0.004
885.54	0.004
885.71	0.004
885.89	0.004
886.07	0.004
886.25	0.004
886.43	0.004
886.61	0.004
886.79	0.004
886.97	0.004
887.15	0.004
887.32	0.004
887.50	0.004
887.68	0.004
887.86	0.004
888.04	0.004
888.22	0.003
888.40	0.003
888.57	0.003
888.75	0.003
888.93	0.004
889.11	0.003
889.29	0.004
889.47	0.004
889.65	0.004
889.82	0.004
890.00	0.004
890.18	0.005
890.36	0.005
890.54	0.005
890.72	0.005
890.90	0.005
891.07	0.005
891.25	0.005
891.43	0.005
891.61	0.005
891.79	0.005
891.97	0.006
892.14	0.006
892.32	0.006
892.50	0.006
892.68	0.006
892.86	0.006
893.03	0.006
893.21	0.006
893.39	0.007
893.57	0.007
893.75	0.007
893.93	0.007
894.10	0.007
894.28	0.007
894.46	0.007
894.64	0.007
894.82	0.007
894.99	0.007
895.17	0.007
895.35	0.007
895.53	0.007
895.71	0.007
895.88	0.007
896.06	0.007
896.24	0.006
896.42	0.006
896.59	0.006
896.77	0.006
896.95	0.006
897.13	0.006
897.31	0.006
897.48	0.006
897.66	0.006
897.84	0.006
898.02	0.006
898.19	0.006
898.37	0.006
898.55	0.007
898.73	0.007
898.91	0.006
899.08	0.006
899.26	0.007
899.44	0.007
899.62	0.007
899.79	0.007
899.97	0.007
900.15	0.007
900.33	0.007
900.50	0.007
900.68	0.007
900.86	0.007
901.04	0.007
901.21	0.007
901.39	0.007
901.57	0.007
901.74	0.007
901.92	0.007
902.10	0.008
902.28	0.008
902.45	0.008
902.63	0.008
902.81	0.008
902.99	0.008
903.16	0.008
903.34	0.009
903.52	0.009
903.69	0.009
903.87	0.009
904.05	0.010
904.22	0.010
904.40	0.010
904.58	0.010
904.76	0.010
904.93	0.010
905.11	0.010
905.29	0.010
905.46	0.010
905.64	0.010
905.82	0.011
905.99	0.011
906.17	0.011
906.35	0.011
906.53	0.011
906.70	0.011
906.88	0.012
907.06	0.012
907.23	0.012
907.41	0.012
907.59	0.013
907.76	0.013
907.94	0.013
908.12	0.014
908.29	0.014
908.47	0.015
908.65	0.015
908.82	0.016
909.00	0.016
909.18	0.016
909.35	0.017
909.53	0.017
909.71	0.017
909.88	0.017
910.06	0.018
910.23	0.018
910.41	0.018
910.59	0.018
910.76	0.019
910.94	0.019
911.12	0.019
911.29	0.020
911.47	0.020
911.65	0.020
911.82	0.020
912.00	0.021
912.17	0.021
912.35	0.021
912.53	0.021
912.70	0.021
912.88	0.022
913.06	0.022
913.23	0.022
913.41	0.022
913.58	0.022
913.76	0.023
913.94	0.023
914.11	0.023
914.29	0.024
914.46	0.024
914.64	0.024
914.82	0.024
914.99	0.024
915.17	0.025
915.34	0.025
915.52	0.025
915.70	0.025
915.87	0.025
916.05	0.026
916.22	0.026
916.40	0.026
916.57	0.027
916.75	0.027
916.93	0.028
917.10	0.028
917.28	0.029
917.45	0.029
917.63	0.029
917.80	0.030
917.98	0.030
918.16	0.031
918.33	0.031
918.51	0.031
918.68	0.031
918.86	0.031
919.03	0.032
919.21	0.032
919.39	0.032
919.56	0.032
919.74	0.033
919.91	0.033
920.09	0.033
920.26	0.033
920.44	0.034
920.61	0.034
920.79	0.034
920.96	0.035
921.14	0.035
921.31	0.035
921.49	0.035
921.67	0.036
921.84	0.036
922.02	0.037
922.19	0.037
922.37	0.037
922.54	0.038
922.72	0.038
922.89	0.038
923.07	0.038
923.24	0.038
923.42	0.039
923.59	0.039
923.77	0.039
923.94	0.039
924.12	0.040
924.29	0.040
924.47	0.040
924.64	0.041
924.82	0.041
924.99	0.041
925.17	0.041
925.34	0.041
925.52	0.041
925.69	0.042
925.87	0.042
926.04	0.041
926.22	0.041
926.39	0.041
926.57	0.041
926.74	0.041
926.91	0.042
927.09	0.041
927.26	0.041
927.44	0.041
927.61	0.041
927.79	0.041
927.96	0.041
928.14	0.041
928.31	0.041
928.49	0.040
928.66	0.040
928.84	0.040
929.01	0.040
929.18	0.039
929.36	0.039
929.53	0.039
929.71	0.038
929.88	0.038
930.06	0.037
930.23	0.037
930.41	0.037
930.58	0.036
930.75	0.036
930.93	0.035
931.10	0.035
931.28	0.034
931.45	0.033
931.63	0.033
931.80	0.032
931.97	0.031
932.15	0.030
932.32	0.029
932.50	0.028
932.67	0.027
932.84	0.026
933.02	0.026
933.19	0.025
933.37	0.024
933.54	0.023
933.71	0.022
933.89	0.021
934.06	0.020
934.24	0.019
934.41	0.018
934.58	0.017
934.76	0.016
934.93	0.014
935.11	0.013
935.28	0.012
935.45	0.011
935.63	0.010
935.80	0.009
935.98	0.008
936.15	0.006
936.32	0.005
936.50	0.003
936.67	0.002
936.84	0.000
937.02	-0.001
937.19	-0.002
937.36	-0.004
937.54	-0.005
937.71	-0.007
937.89	-0.008
938.06	-0.009
938.23	-0.011
938.41	-0.012
938.58	-0.013
938.75	-0.014
938.93	-0.016
939.10	-0.017
939.27	-0.018
939.45	-0.019
939.62	-0.021
939.79	-0.022
939.97	-0.024
940.14	-0.025
940.31	-0.026
940.49	-0.028
940.66	-0.029
940.83	-0.031
941.01	-0.032
941.18	-0.033
941.35	-0.035
941.53	-0.036
941.70	-0.037
941.87	-0.038
942.05	-0.040
942.22	-0.041
942.39	-0.042
942.57	-0.044
942.74	-0.045
942.91	-0.046
943.08	-0.047
943.26	-0.049
943.43	-0.050
943.60	-0.051
943.78	-0.052
943.95	-0.054
944.12	-0.055
944.29	-0.056
944.47	-0.057
944.64	-0.059
944.81	-0.060
944.99	-0.062
945.16	-0.063
945.33	-0.064
945.50	-0.065
945.68	-0.066
945.85	-0.068
946.02	-0.069
946.20	-0.071
946.37	-0.072
946.54	-0.073
946.71	-0.074
946.89	-0.075
947.06	-0.076
947.23	-0.078
947.40	-0.079
947.58	-0.080
947.75	-0.082
947.92	-0.083
948.09	-0.084
948.27	-0.086
948.44	-0.087
948.61	-0.088
948.78	-0.090
948.96	-0.091
949.13	-0.092
949.30	-0.094
949.47	-0.095
949.65	-0.097
949.82	-0.098
949.99	-0.099
950.16	-0.101
950.33	-0.102
950.51	-0.103
950.68	-0.105
950.85	-0.107
951.02	-0.108
951.20	-0.109
951.37	-0.111
951.54	-0.112
951.71	-0.114
951.88	-0.115
952.06	-0.117
952.23	-0.118
952.40	-0.120
952.57	-0.121
952.74	-0.122
952.92	-0.124
953.09	-0.126
953.26	-0.126
953.43	-0.128
953.60	-0.129
953.77	-0.130
953.95	-0.131
954.12	-0.132
954.29	-0.133
954.46	-0.135
954.63	-0.137
954.81	-0.138
954.98	-0.139
955.15	-0.141
955.32	-0.142
955.49	-0.143
955.66	-0.145
955.84	-0.146
956.01	-0.148
956.18	-0.149
956.35	-0.150
956.52	-0.151
956.69	-0.152
956.87	-0.153
957.04	-0.155
957.21	-0.156
957.38	-0.156
957.55	-0.157
957.72	-0.158
957.89	-0.159
958.07	-0.159
958.24	-0.160
958.41	-0.162
958.58	-0.162
958.75	-0.163
958.92	-0.164
959.09	-0.165
959.26	-0.166
959.44	-0.166
959.61	-0.168
959.78	-0.169
959.95	-0.169
960.12	-0.170
960.29	-0.170
960.46	-0.171
960.63	-0.172
960.81	-0.172
960.98	-0.173
961.15	-0.174
961.32	-0.174
961.49	-0.174
961.66	-0.175
961.83	-0.175
962.00	-0.176
962.17	-0.176
962.34	-0.176
962.52	-0.177
962.69	-0.177
962.86	-0.178
963.03	-0.178
963.20	-0.178
963.37	-0.179
963.54	-0.179
963.71	-0.179
963.88	-0.179
964.05	-0.180
964.22	-0.180
964.39	-0.180
964.56	-0.181
964.74	-0.181
964.91	-0.181
965.08	-0.181
965.25	-0.181
965.42	-0.182
965.59	-0.182
965.76	-0.181
965.93	-0.182
966.10	-0.182
966.27	-0.182
966.44	-0.182
966.61	-0.182
966.78	-0.182
966.95	-0.183
967.12	-0.183
967.29	-0.183
967.46	-0.183
967.63	-0.184
967.80	-0.183
967.97	-0.183
968.14	-0.184
968.32	-0.184
968.49	-0.184
968.66	-0.184
968.83	-0.185
969.00	-0.184
969.17	-0.184
969.34	-0.184
969.51	-0.185
969.68	-0.185
969.85	-0.186
970.02	-0.185
970.19	-0.185
970.36	-0.186
970.53	-0.186
970.70	-0.186
970.87	-0.186
971.04	-0.186
971.21	-0.187
971.38	-0.186
971.55	-0.187
971.72	-0.187
971.89	-0.187
972.06	-0.187
972.23	-0.187
972.40	-0.187
972.57	-0.188
972.74	-0.188
972.91	-0.188
973.07	-0.188
973.24	-0.188
973.41	-0.188
973.58	-0.188
973.75	-0.188
973.92	-0.189
974.09	-0.189
974.26	-0.189
974.43	-0.188
974.60	-0.189
974.77	-0.189
974.94	-0.189
975.11	-0.189
975.28	-0.189
975.45	-0.189
975.62	-0.189
975.79	-0.189
975.96	-0.189
976.13	-0.189
976.30	-0.189
976.47	-0.189
976.64	-0.190
976.80	-0.190
976.97	-0.190
977.14	-0.189
977.31	-0.189
977.48	-0.189
977.65	-0.189
977.82	-0.189
977.99	-0.188
978.16	-0.188
978.33	-0.188
978.50	-0.188
978.67	-0.188
978.83	-0.188
979.00	-0.188
979.17	-0.187
979.34	-0.188
979.51	-0.188
979.68	-0.187
979.85	-0.187
980.02	-0.187
980.19	-0.187
980.36	-0.186
980.52	-0.186
980.69	-0.185
980.86	-0.185
981.03	-0.185
981.20	-0.185
981.37	-0.185
981.54	-0.184
981.71	-0.184
981.88	-0.183
982.04	-0.183
982.21	-0.183
982.38	-0.184
982.55	-0.184
982.72	-0.184
982.89	-0.184
983.06	-0.183
983.22	-0.183
983.39	-0.183
983.56	-0.183
983.73	-0.183
983.90	-0.183
984.07	-0.182
984.24	-0.182
984.40	-0.181
984.57	-0.181
984.74	-0.181
984.91	-0.180
985.08	-0.180
985.25	-0.179
985.41	-0.179
985.58	-0.179
985.75	-0.179
985.92	-0.178
986.09	-0.178
986.26	-0.178
986.42	-0.178
986.59	-0.177
986.76	-0.177
986.93	-0.177
987.10	-0.178
987.27	-0.177
987.43	-0.177
987.60	-0.176
987.77	-0.175
987.94	-0.175
988.11	-0.175
988.27	-0.175
988.44	-0.175
988.61	-0.174
988.78	-0.173
988.95	-0.172
989.11	-0.171
989.28	-0.171
989.45	-0.171
989.62	-0.171
989.79	-0.170
989.95	-0.170
990.12	-0.169
990.29	-0.169
990.46	-0.169
990.62	-0.169
990.79	-0.169
990.96	-0.169
991.13	-0.168
991.30	-0.168
991.46	-0.167
991.63	-0.167
991.80	-0.167
991.97	-0.166
992.13	-0.166
992.30	-0.166
992.47	-0.165
992.64	-0.165
992.80	-0.165
992.97	-0.164
993.14	-0.164
993.31	-0.163
993.47	-0.163
993.64	-0.163
993.81	-0.163
993.98	-0.162
994.14	-0.162
994.31	-0.162
994.48	-0.161
994.64	-0.160
994.81	-0.160
994.98	-0.160
995.15	-0.160
995.31	-0.158
995.48	-0.158
995.65	-0.158
995.82	-0.157
995.98	-0.157
996.15	-0.156
996.32	-0.156
996.48	-0.155
996.65	-0.154
996.82	-0.154
996.99	-0.153
997.15	-0.153
997.32	-0.153
997.49	-0.152
997.65	-0.152
997.82	-0.152
997.99	-0.151
998.15	-0.151
998.32	-0.150
998.49	-0.150
998.65	-0.150
998.82	-0.150
998.99	-0.150
999.15	-0.149
999.32	-0.148
999.49	-0.148
999.65	-0.147
999.82	-0.146
999.99	-0.146
1000.15	-0.146
1000.32	-0.146
1000.49	-0.145
1000.65	-0.145
1000.82	-0.144
1000.99	-0.144
1001.15	-0.144
1001.32	-0.143
1001.49	-0.143
1001.65	-0.143
1001.82	-0.142
1001.99	-0.140
1002.15	-0.140
1002.32	-0.139
1002.49	-0.139
1002.65	-0.139
1002.82	-0.138
1002.99	-0.137
1003.15	-0.138
1003.32	-0.137
1003.48	-0.136
1003.65	-0.136
1003.82	-0.136
1003.98	-0.135
1004.15	-0.135
1004.32	-0.133
1004.48	-0.133
1004.65	-0.133
1004.81	-0.132
1004.98	-0.132
1005.15	-0.131
1005.31	-0.131
1005.48	-0.130
1005.64	-0.129
1005.81	-0.129
1005.98	-0.129
1006.14	-0.129
1006.31	-0.128
1006.47	-0.128
1006.64	-0.127
1006.81	-0.127
1006.97	-0.126
1007.14	-0.126
1007.30	-0.126
1007.47	-0.126
1007.63	-0.124
1007.80	-0.124
1007.97	-0.124
1008.13	-0.123
1008.30	-0.123
1008.46	-0.122
1008.63	-0.122
1008.79	-0.122
1008.96	-0.120
1009.13	-0.119
1009.29	-0.118
1009.46	-0.117
1009.62	-0.116
1009.79	-0.115
1009.95	-0.115
1010.12	-0.115
1010.28	-0.114
1010.45	-0.113
1010.62	-0.113
1010.78	-0.112
1010.95	-0.112
1011.11	-0.111
1011.28	-0.111
1011.44	-0.111
1011.61	-0.110
1011.77	-0.109
1011.94	-0.109
1012.10	-0.108
1012.27	-0.108
1012.43	-0.107
1012.60	-0.106
1012.76	-0.107
1012.93	-0.107
1013.10	-0.106
1013.26	-0.105
1013.43	-0.104
1013.59	-0.104
1013.76	-0.103
1013.92	-0.102
1014.09	-0.101
1014.25	-0.099
1014.42	-0.100
1014.58	-0.098
1014.75	-0.097
1014.91	-0.097
1015.08	-0.097
1015.24	-0.095
1015.41	-0.094
1015.57	-0.094
1015.73	-0.094
1015.90	-0.094
1016.06	-0.094
1016.23	-0.094
1016.39	-0.094
1016.56	-0.093
1016.72	-0.093
1016.89	-0.093
1017.05	-0.093
1017.22	-0.094
1017.38	-0.093
1017.55	-0.092
1017.71	-0.091
1017.88	-0.090
1018.04	-0.090
1018.21	-0.089
1018.37	-0.089
1018.53	-0.088
1018.70	-0.087
1018.86	-0.086
1019.03	-0.085
1019.19	-0.085
1019.36	-0.085
1019.52	-0.086
1019.69	-0.087
1019.85	-0.086
1020.01	-0.086
1020.18	-0.087
1020.34	-0.087
1020.51	-0.086
1020.67	-0.087
1020.84	-0.086
1021.00	-0.085
1021.16	-0.083
1021.33	-0.081
1021.49	-0.080
1021.66	-0.080
1021.82	-0.080
1021.98	-0.078
1022.15	-0.078
1022.31	-0.078
1022.48	-0.077
1022.64	-0.077
1022.80	-0.077
1022.97	-0.077
1023.13	-0.077
1023.30	-0.077
1023.46	-0.077
1023.62	-0.076
1023.79	-0.077
1023.95	-0.076
1024.12	-0.076
1024.28	-0.075
1024.44	-0.075
1024.61	-0.074
1024.77	-0.075
1024.93	-0.074
1025.10	-0.074
1025.26	-0.072
1025.43	-0.071
1025.59	-0.070
1025.75	-0.070
1025.92	-0.070
1026.08	-0.071
1026.24	-0.069
1026.41	-0.069
1026.57	-0.068
1026.73	-0.068
1026.90	-0.068
1027.06	-0.068
1027.23	-0.068
1027.39	-0.068
1027.55	-0.068
1027.72	-0.066
1027.88	-0.065
1028.04	-0.066
1028.21	-0.065
1028.37	-0.064
1028.53	-0.062
1028.70	-0.061
1028.86	-0.061
1029.02	-0.060
1029.19	-0.060
1029.35	-0.060
1029.51	-0.059
1029.67	-0.059
1029.84	-0.058
1030.00	-0.058
1030.16	-0.057
1030.33	-0.057
1030.49	-0.057
1030.65	-0.058
1030.82	-0.057
1030.98	-0.056
1031.14	-0.056
1031.31	-0.056
1031.47	-0.055
1031.63	-0.055
1031.79	-0.054
1031.96	-0.055
1032.12	-0.055
1032.28	-0.053
1032.45	-0.052
1032.61	-0.053
1032.77	-0.052
1032.93	-0.051
1033.10	-0.049
1033.26	-0.048
1033.42	-0.047
1033.58	-0.046
1033.75	-0.045
1033.91	-0.044
1034.07	-0.045
1034.24	-0.044
1034.40	-0.042
1034.56	-0.043
1034.72	-0.043
1034.89	-0.044
1035.05	-0.044
1035.21	-0.044
1035.37	-0.045
1035.54	-0.046
1035.70	-0.045
1035.86	-0.043
1036.02	-0.043
1036.19	-0.043
1036.35	-0.042
1036.51	-0.042
1036.67	-0.041
1036.83	-0.040
1037.00	-0.041
1037.16	-0.040
1037.32	-0.040
1037.48	-0.041
1037.65	-0.041
1037.81	-0.040
1037.97	-0.040
1038.13	-0.040
1038.29	-0.039
1038.46	-0.039
1038.62	-0.040
1038.78	-0.040
1038.94	-0.040
1039.10	-0.039
1039.27	-0.038
1039.43	-0.039
1039.59	-0.038
1039.75	-0.038
1039.91	-0.037
1040.08	-0.037
1040.24	-0.038
1040.40	-0.036
1040.56	-0.035
1040.72	-0.035
1040.89	-0.035
1041.05	-0.035
1041.21	-0.033
1041.37	-0.034
1041.53	-0.033
1041.69	-0.033
1041.86	-0.033
1042.02	-0.032
1042.18	-0.032
1042.34	-0.031
1042.50	-0.030
1042.66	-0.030
1042.83	-0.030
1042.99	-0.030
1043.15	-0.030
1043.31	-0.031
1043.47	-0.031
1043.63	-0.030
1043.79	-0.031
1043.96	-0.030
1044.12	-0.031
1044.28	-0.031
1044.44	-0.031
1044.60	-0.032
1044.76	-0.033
1044.92	-0.032
1045.09	-0.031
1045.25	-0.031
1045.41	-0.032
1045.57	-0.031
1045.73	-0.031
1045.89	-0.031
1046.05	-0.031
1046.21	-0.037
1046.38	-0.018
1046.54	-0.032
1046.70	-0.039
1046.86	-0.030
>>>>>End Processed Spectral Data<<<<<
