SpectraSuite Data File
++++++++++++++++++++++++++++++++++++
Date: Mon May 06 13:36:47 CDT 2013
User: Students
Dark Spectrum Present: Yes
Reference Spectrum Present: Yes
Number of Sampled Component Spectra: 1
Spectrometers: USB4H00887
Integration Time (usec): 50000 (USB4H00887)
Spectra Averaged: 10 (USB4H00887)
Boxcar Smoothing: 5 (USB4H00887)
Correct for Electrical Dark: No (USB4H00887)
Strobe/Lamp Enabled: No (USB4H00887)
Correct for Detector Non-linearity: No (USB4H00887)
Correct for Stray Light: No (USB4H00887)
Number of Pixels in Processed Spectrum: 3648
>>>>>Begin Processed Spectral Data<<<<<
345.83	-0.194
346.05	-0.194
346.26	-0.194
346.48	0.637
346.70	0.634
346.92	-0.614
347.14	-0.470
347.35	-0.414
347.57	-0.395
347.79	-0.295
348.01	-0.312
348.23	-0.350
348.44	-0.477
348.66	-0.347
348.88	-0.166
349.10	-0.140
349.32	-0.108
349.53	-0.036
349.75	-0.104
349.97	-0.119
350.19	-0.130
350.41	-0.115
350.62	-0.135
350.84	-0.093
351.06	-0.083
351.28	-0.096
351.50	-0.088
351.71	-0.071
351.93	-0.116
352.15	-0.077
352.37	-0.096
352.58	-0.098
352.80	-0.119
353.02	-0.083
353.24	-0.098
353.46	-0.098
353.67	-0.109
353.89	-0.100
354.11	-0.100
354.33	-0.107
354.54	-0.098
354.76	-0.010
354.98	0.058
355.20	0.024
355.41	0.038
355.63	0.003
355.85	0.001
356.07	0.004
356.28	0.003
356.50	0.026
356.72	0.019
356.94	-0.000
357.15	-0.022
357.37	-0.066
357.59	-0.044
357.81	-0.067
358.02	-0.028
358.24	0.014
358.46	0.008
358.68	0.054
358.89	0.025
359.11	0.004
359.33	0.011
359.55	-0.011
359.76	0.021
359.98	0.012
360.20	0.013
360.42	-0.012
360.63	-0.063
360.85	-0.053
361.07	-0.066
361.29	-0.049
361.50	-0.048
361.72	-0.045
361.94	-0.035
362.15	-0.043
362.37	-0.020
362.59	-0.000
362.81	-0.019
363.02	-0.019
363.24	-0.025
363.46	-0.017
363.68	-0.017
363.89	-0.019
364.11	-0.029
364.33	-0.030
364.54	-0.003
364.76	-0.015
364.98	-0.034
365.20	-0.036
365.41	-0.031
365.63	-0.009
365.85	-0.034
366.06	-0.043
366.28	-0.024
366.50	0.025
366.71	0.049
366.93	0.029
367.15	0.073
367.37	0.088
367.58	0.138
367.80	0.147
368.02	0.134
368.23	0.151
368.45	0.153
368.67	0.165
368.88	0.153
369.10	0.120
369.32	0.121
369.53	0.068
369.75	0.064
369.97	0.035
370.19	0.055
370.40	0.067
370.62	0.045
370.84	0.036
371.05	0.049
371.27	0.072
371.49	0.097
371.70	0.095
371.92	0.110
372.14	0.093
372.35	0.102
372.57	0.125
372.79	0.081
373.00	0.085
373.22	0.096
373.44	0.131
373.65	0.101
373.87	0.086
374.09	0.089
374.30	0.094
374.52	0.110
374.74	0.140
374.95	0.091
375.17	0.128
375.39	0.147
375.60	0.131
375.82	0.107
376.04	0.102
376.25	0.075
376.47	0.109
376.68	0.099
376.90	0.121
377.12	0.109
377.33	0.143
377.55	0.136
377.77	0.134
377.98	0.173
378.20	0.188
378.42	0.192
378.63	0.225
378.85	0.206
379.07	0.228
379.28	0.207
379.50	0.206
379.71	0.217
379.93	0.228
380.15	0.214
380.36	0.209
380.58	0.182
380.80	0.209
381.01	0.227
381.23	0.251
381.44	0.220
381.66	0.233
381.88	0.233
382.09	0.218
382.31	0.213
382.53	0.222
382.74	0.261
382.96	0.271
383.17	0.250
383.39	0.235
383.61	0.203
383.82	0.201
384.04	0.224
384.25	0.228
384.47	0.249
384.69	0.256
384.90	0.254
385.12	0.231
385.33	0.244
385.55	0.250
385.77	0.251
385.98	0.237
386.20	0.268
386.41	0.232
386.63	0.254
386.85	0.253
387.06	0.251
387.28	0.248
387.49	0.261
387.71	0.291
387.93	0.297
388.14	0.311
388.36	0.346
388.57	0.348
388.79	0.351
389.01	0.338
389.22	0.325
389.44	0.346
389.65	0.367
389.87	0.369
390.08	0.343
390.30	0.352
390.52	0.363
390.73	0.362
390.95	0.356
391.16	0.373
391.38	0.383
391.59	0.393
391.81	0.388
392.03	0.400
392.24	0.406
392.46	0.397
392.67	0.380
392.89	0.367
393.10	0.372
393.32	0.403
393.53	0.411
393.75	0.387
393.97	0.408
394.18	0.414
394.40	0.413
394.61	0.423
394.83	0.436
395.04	0.499
395.26	0.511
395.47	0.501
395.69	0.515
395.91	0.521
396.12	0.557
396.34	0.531
396.55	0.518
396.77	0.496
396.98	0.455
397.20	0.485
397.41	0.453
397.63	0.477
397.84	0.447
398.06	0.404
398.27	0.400
398.49	0.403
398.71	0.409
398.92	0.418
399.14	0.438
399.35	0.458
399.57	0.424
399.78	0.431
400.00	0.407
400.21	0.441
400.43	0.458
400.64	0.470
400.86	0.458
401.07	0.448
401.29	0.437
401.50	0.422
401.72	0.412
401.93	0.439
402.15	0.437
402.36	0.445
402.58	0.445
402.79	0.453
403.01	0.451
403.22	0.468
403.44	0.493
403.65	0.526
403.87	0.537
404.08	0.546
404.30	0.511
404.51	0.515
404.73	0.535
404.94	0.559
405.16	0.587
405.37	0.591
405.59	0.588
405.80	0.594
406.02	0.567
406.23	0.576
406.45	0.586
406.66	0.590
406.88	0.596
407.09	0.575
407.31	0.568
407.52	0.540
407.74	0.548
407.95	0.577
408.17	0.559
408.38	0.575
408.60	0.569
408.81	0.560
409.03	0.587
409.24	0.598
409.45	0.600
409.67	0.600
409.88	0.621
410.10	0.607
410.31	0.615
410.53	0.644
410.74	0.667
410.96	0.688
411.17	0.694
411.39	0.671
411.60	0.653
411.82	0.665
412.03	0.695
412.24	0.675
412.46	0.687
412.67	0.666
412.89	0.653
413.10	0.642
413.32	0.626
413.53	0.635
413.75	0.666
413.96	0.672
414.17	0.683
414.39	0.652
414.60	0.686
414.82	0.695
415.03	0.702
415.25	0.681
415.46	0.687
415.68	0.689
415.89	0.673
416.10	0.672
416.32	0.656
416.53	0.652
416.75	0.641
416.96	0.632
417.18	0.648
417.39	0.638
417.60	0.671
417.82	0.680
418.03	0.691
418.25	0.733
418.46	0.719
418.67	0.714
418.89	0.709
419.10	0.737
419.32	0.747
419.53	0.746
419.75	0.750
419.96	0.731
420.17	0.713
420.39	0.712
420.60	0.711
420.82	0.723
421.03	0.764
421.24	0.754
421.46	0.736
421.67	0.736
421.89	0.723
422.10	0.730
422.31	0.744
422.53	0.746
422.74	0.754
422.96	0.732
423.17	0.729
423.38	0.738
423.60	0.769
423.81	0.786
424.03	0.783
424.24	0.787
424.45	0.774
424.67	0.772
424.88	0.784
425.09	0.799
425.31	0.802
425.52	0.820
425.74	0.791
425.95	0.809
426.16	0.809
426.38	0.822
426.59	0.847
426.80	0.887
427.02	0.923
427.23	0.926
427.45	0.942
427.66	0.977
427.87	0.954
428.09	0.971
428.30	0.944
428.51	0.962
428.73	0.968
428.94	0.957
429.15	0.938
429.37	0.937
429.58	0.972
429.79	0.954
430.01	0.961
430.22	1.002
430.44	1.011
430.65	1.058
430.86	1.065
431.08	1.060
431.29	1.040
431.50	1.042
431.72	1.014
431.93	0.956
432.14	0.959
432.36	0.947
432.57	0.943
432.78	0.976
433.00	0.932
433.21	0.938
433.42	0.926
433.64	0.961
433.85	0.977
434.06	0.994
434.28	1.035
434.49	1.037
434.70	1.015
434.92	0.996
435.13	1.001
435.34	1.039
435.56	1.018
435.77	1.038
435.98	1.053
436.20	1.048
436.41	1.031
436.62	1.022
436.83	1.036
437.05	1.071
437.26	1.107
437.47	1.104
437.69	1.062
437.90	1.079
438.11	1.086
438.33	1.063
438.54	1.100
438.75	1.103
438.97	1.137
439.18	1.130
439.39	1.143
439.60	1.120
439.82	1.112
440.03	1.132
440.24	1.116
440.46	1.137
440.67	1.106
440.88	1.096
441.10	1.129
441.31	1.118
441.52	1.118
441.73	1.097
441.95	1.084
442.16	1.081
442.37	1.072
442.58	1.107
442.80	1.081
443.01	1.075
443.22	1.065
443.44	1.071
443.65	1.072
443.86	1.074
444.07	1.089
444.29	1.123
444.50	1.106
444.71	1.135
444.92	1.107
445.14	1.138
445.35	1.175
445.56	1.182
445.78	1.155
445.99	1.176
446.20	1.172
446.41	1.169
446.63	1.159
446.84	1.164
447.05	1.155
447.26	1.169
447.48	1.142
447.69	1.173
447.90	1.140
448.11	1.139
448.33	1.101
448.54	1.100
448.75	1.110
448.96	1.104
449.18	1.108
449.39	1.103
449.60	1.086
449.81	1.082
450.03	1.044
450.24	1.078
450.45	1.091
450.66	1.106
450.87	1.127
451.09	1.129
451.30	1.152
451.51	1.151
451.72	1.148
451.94	1.174
452.15	1.199
452.36	1.223
452.57	1.188
452.78	1.173
453.00	1.173
453.21	1.173
453.42	1.161
453.63	1.139
453.85	1.146
454.06	1.163
454.27	1.172
454.48	1.187
454.69	1.195
454.91	1.231
455.12	1.258
455.33	1.282
455.54	1.282
455.75	1.311
455.97	1.288
456.18	1.293
456.39	1.273
456.60	1.267
456.81	1.245
457.03	1.245
457.24	1.237
457.45	1.212
457.66	1.191
457.87	1.197
458.09	1.194
458.30	1.212
458.51	1.220
458.72	1.240
458.93	1.233
459.15	1.238
459.36	1.232
459.57	1.238
459.78	1.244
459.99	1.276
460.20	1.267
460.42	1.261
460.63	1.299
460.84	1.291
461.05	1.282
461.26	1.270
461.47	1.288
461.69	1.288
461.90	1.286
462.11	1.290
462.32	1.290
462.53	1.274
462.74	1.274
462.96	1.264
463.17	1.265
463.38	1.285
463.59	1.300
463.80	1.309
464.01	1.320
464.23	1.317
464.44	1.325
464.65	1.331
464.86	1.346
465.07	1.343
465.28	1.326
465.49	1.353
465.71	1.356
465.92	1.362
466.13	1.322
466.34	1.338
466.55	1.353
466.76	1.356
466.97	1.354
467.19	1.370
467.40	1.374
467.61	1.381
467.82	1.378
468.03	1.345
468.24	1.321
468.45	1.361
468.66	1.351
468.88	1.332
469.09	1.322
469.30	1.316
469.51	1.322
469.72	1.339
469.93	1.364
470.14	1.356
470.35	1.387
470.57	1.401
470.78	1.395
470.99	1.393
471.20	1.392
471.41	1.398
471.62	1.397
471.83	1.372
472.04	1.376
472.25	1.381
472.47	1.371
472.68	1.374
472.89	1.387
473.10	1.364
473.31	1.355
473.52	1.379
473.73	1.393
473.94	1.404
474.15	1.453
474.36	1.441
474.57	1.440
474.79	1.439
475.00	1.456
475.21	1.455
475.42	1.464
475.63	1.484
475.84	1.482
476.05	1.474
476.26	1.458
476.47	1.444
476.68	1.444
476.89	1.432
477.10	1.452
477.32	1.437
477.53	1.439
477.74	1.445
477.95	1.459
478.16	1.456
478.37	1.463
478.58	1.472
478.79	1.460
479.00	1.458
479.21	1.464
479.42	1.458
479.63	1.451
479.84	1.461
480.05	1.477
480.26	1.467
480.47	1.471
480.69	1.462
480.90	1.458
481.11	1.471
481.32	1.476
481.53	1.456
481.74	1.462
481.95	1.473
482.16	1.473
482.37	1.473
482.58	1.473
482.79	1.470
483.00	1.478
483.21	1.478
483.42	1.462
483.63	1.459
483.84	1.461
484.05	1.478
484.26	1.475
484.47	1.483
484.68	1.475
484.89	1.470
485.10	1.471
485.31	1.475
485.52	1.477
485.73	1.493
485.94	1.502
486.15	1.524
486.37	1.499
486.58	1.499
486.79	1.492
487.00	1.495
487.21	1.510
487.42	1.499
487.63	1.494
487.84	1.496
488.05	1.479
488.26	1.459
488.47	1.449
488.68	1.446
488.89	1.447
489.10	1.453
489.31	1.438
489.52	1.425
489.73	1.431
489.94	1.436
490.15	1.442
490.36	1.446
490.57	1.466
490.78	1.458
490.99	1.460
491.20	1.456
491.41	1.446
491.62	1.459
491.83	1.465
492.04	1.454
492.25	1.441
492.45	1.434
492.66	1.439
492.87	1.429
493.08	1.434
493.29	1.429
493.50	1.419
493.71	1.409
493.92	1.410
494.13	1.409
494.34	1.414
494.55	1.427
494.76	1.415
494.97	1.400
495.18	1.398
495.39	1.403
495.60	1.405
495.81	1.405
496.02	1.402
496.23	1.393
496.44	1.386
496.65	1.387
496.86	1.376
497.07	1.383
497.28	1.384
497.49	1.383
497.70	1.381
497.91	1.380
498.12	1.383
498.32	1.378
498.53	1.374
498.74	1.367
498.95	1.357
499.16	1.353
499.37	1.349
499.58	1.351
499.79	1.350
500.00	1.344
500.21	1.340
500.42	1.333
500.63	1.334
500.84	1.338
501.05	1.340
501.26	1.340
501.46	1.336
501.67	1.338
501.88	1.335
502.09	1.332
502.30	1.327
502.51	1.327
502.72	1.329
502.93	1.332
503.14	1.326
503.35	1.322
503.56	1.319
503.77	1.320
503.97	1.314
504.18	1.312
504.39	1.305
504.60	1.302
504.81	1.302
505.02	1.307
505.23	1.307
505.44	1.305
505.65	1.311
505.86	1.310
506.07	1.306
506.27	1.297
506.48	1.301
506.69	1.308
506.90	1.314
507.11	1.312
507.32	1.305
507.53	1.298
507.74	1.292
507.95	1.284
508.15	1.287
508.36	1.286
508.57	1.295
508.78	1.283
508.99	1.273
509.20	1.270
509.41	1.266
509.62	1.263
509.82	1.274
510.03	1.272
510.24	1.274
510.45	1.268
510.66	1.269
510.87	1.267
511.08	1.270
511.29	1.271
511.49	1.264
511.70	1.267
511.91	1.261
512.12	1.252
512.33	1.252
512.54	1.246
512.75	1.246
512.95	1.241
513.16	1.234
513.37	1.234
513.58	1.234
513.79	1.233
514.00	1.228
514.20	1.227
514.41	1.227
514.62	1.227
514.83	1.229
515.04	1.226
515.25	1.223
515.46	1.229
515.66	1.225
515.87	1.225
516.08	1.229
516.29	1.228
516.50	1.231
516.71	1.228
516.91	1.229
517.12	1.230
517.33	1.234
517.54	1.236
517.75	1.234
517.95	1.236
518.16	1.236
518.37	1.236
518.58	1.233
518.79	1.234
519.00	1.236
519.20	1.238
519.41	1.236
519.62	1.237
519.83	1.236
520.04	1.233
520.24	1.232
520.45	1.228
520.66	1.227
520.87	1.230
521.08	1.229
521.28	1.227
521.49	1.226
521.70	1.224
521.91	1.222
522.12	1.226
522.32	1.231
522.53	1.233
522.74	1.236
522.95	1.237
523.16	1.239
523.36	1.234
523.57	1.235
523.78	1.236
523.99	1.240
524.20	1.240
524.40	1.242
524.61	1.244
524.82	1.243
525.03	1.246
525.23	1.247
525.44	1.248
525.65	1.254
525.86	1.256
526.06	1.256
526.27	1.256
526.48	1.260
526.69	1.259
526.90	1.259
527.10	1.261
527.31	1.263
527.52	1.268
527.73	1.272
527.93	1.276
528.14	1.277
528.35	1.282
528.56	1.284
528.76	1.283
528.97	1.286
529.18	1.289
529.39	1.289
529.59	1.295
529.80	1.294
530.01	1.295
530.22	1.293
530.42	1.295
530.63	1.295
530.84	1.301
531.05	1.300
531.25	1.300
531.46	1.302
531.67	1.306
531.88	1.304
532.08	1.307
532.29	1.310
532.50	1.314
532.70	1.316
532.91	1.320
533.12	1.319
533.33	1.325
533.53	1.330
533.74	1.327
533.95	1.328
534.15	1.327
534.36	1.328
534.57	1.329
534.78	1.330
534.98	1.327
535.19	1.331
535.40	1.337
535.60	1.340
535.81	1.344
536.02	1.346
536.23	1.348
536.43	1.354
536.64	1.355
536.85	1.355
537.05	1.355
537.26	1.361
537.47	1.360
537.67	1.358
537.88	1.354
538.09	1.354
538.30	1.362
538.50	1.365
538.71	1.360
538.92	1.363
539.12	1.367
539.33	1.370
539.54	1.367
539.74	1.368
539.95	1.370
540.16	1.371
540.36	1.370
540.57	1.370
540.78	1.370
540.98	1.378
541.19	1.377
541.40	1.377
541.60	1.378
541.81	1.378
542.02	1.377
542.22	1.374
542.43	1.375
542.64	1.373
542.84	1.367
543.05	1.366
543.26	1.361
543.46	1.361
543.67	1.358
543.88	1.362
544.08	1.365
544.29	1.369
544.50	1.372
544.70	1.372
544.91	1.374
545.12	1.373
545.32	1.374
545.53	1.372
545.74	1.367
545.94	1.370
546.15	1.363
546.35	1.360
546.56	1.355
546.77	1.356
546.97	1.354
547.18	1.351
547.39	1.351
547.59	1.348
547.80	1.347
548.01	1.349
548.21	1.348
548.42	1.349
548.62	1.351
548.83	1.355
549.04	1.350
549.24	1.349
549.45	1.353
549.65	1.356
549.86	1.359
550.07	1.359
550.27	1.359
550.48	1.351
550.69	1.350
550.89	1.346
551.10	1.342
551.30	1.337
551.51	1.338
551.72	1.334
551.92	1.328
552.13	1.325
552.33	1.325
552.54	1.320
552.75	1.318
552.95	1.319
553.16	1.320
553.36	1.319
553.57	1.317
553.78	1.313
553.98	1.312
554.19	1.309
554.39	1.304
554.60	1.300
554.80	1.302
555.01	1.305
555.22	1.303
555.42	1.298
555.63	1.295
555.83	1.294
556.04	1.293
556.25	1.289
556.45	1.285
556.66	1.285
556.86	1.283
557.07	1.277
557.27	1.274
557.48	1.270
557.68	1.269
557.89	1.266
558.10	1.263
558.30	1.262
558.51	1.261
558.71	1.261
558.92	1.256
559.12	1.254
559.33	1.253
559.54	1.251
559.74	1.248
559.95	1.244
560.15	1.244
560.36	1.242
560.56	1.239
560.77	1.238
560.97	1.233
561.18	1.233
561.38	1.231
561.59	1.229
561.79	1.225
562.00	1.221
562.21	1.218
562.41	1.213
562.62	1.211
562.82	1.205
563.03	1.201
563.23	1.199
563.44	1.192
563.64	1.187
563.85	1.183
564.05	1.179
564.26	1.177
564.46	1.173
564.67	1.170
564.87	1.168
565.08	1.165
565.28	1.161
565.49	1.157
565.69	1.153
565.90	1.149
566.10	1.145
566.31	1.142
566.51	1.136
566.72	1.132
566.92	1.127
567.13	1.122
567.33	1.117
567.54	1.112
567.74	1.110
567.95	1.108
568.15	1.103
568.36	1.099
568.56	1.095
568.77	1.092
568.97	1.088
569.18	1.085
569.38	1.079
569.59	1.075
569.79	1.068
570.00	1.062
570.20	1.056
570.41	1.053
570.61	1.048
570.82	1.042
571.02	1.037
571.23	1.032
571.43	1.027
571.64	1.021
571.84	1.016
572.05	1.013
572.25	1.008
572.45	1.002
572.66	0.995
572.86	0.990
573.07	0.984
573.27	0.977
573.48	0.971
573.68	0.965
573.89	0.961
574.09	0.955
574.30	0.947
574.50	0.940
574.70	0.934
574.91	0.928
575.11	0.923
575.32	0.916
575.52	0.908
575.73	0.902
575.93	0.895
576.14	0.889
576.34	0.884
576.54	0.876
576.75	0.870
576.95	0.863
577.16	0.857
577.36	0.849
577.57	0.842
577.77	0.834
577.97	0.827
578.18	0.820
578.38	0.811
578.59	0.803
578.79	0.798
579.00	0.790
579.20	0.782
579.40	0.774
579.61	0.767
579.81	0.759
580.02	0.753
580.22	0.746
580.42	0.737
580.63	0.731
580.83	0.722
581.04	0.715
581.24	0.708
581.45	0.700
581.65	0.693
581.85	0.686
582.06	0.679
582.26	0.671
582.47	0.662
582.67	0.655
582.87	0.647
583.08	0.640
583.28	0.632
583.48	0.625
583.69	0.617
583.89	0.611
584.10	0.603
584.30	0.596
584.50	0.589
584.71	0.583
584.91	0.576
585.12	0.569
585.32	0.562
585.52	0.555
585.73	0.547
585.93	0.540
586.13	0.532
586.34	0.525
586.54	0.517
586.75	0.510
586.95	0.504
587.15	0.497
587.36	0.490
587.56	0.483
587.76	0.476
587.97	0.470
588.17	0.464
588.37	0.457
588.58	0.452
588.78	0.446
588.98	0.440
589.19	0.433
589.39	0.427
589.60	0.420
589.80	0.415
590.00	0.409
590.21	0.403
590.41	0.397
590.61	0.391
590.82	0.385
591.02	0.379
591.22	0.374
591.43	0.368
591.63	0.362
591.83	0.357
592.04	0.352
592.24	0.346
592.44	0.342
592.65	0.336
592.85	0.331
593.05	0.326
593.26	0.321
593.46	0.315
593.66	0.311
593.86	0.306
594.07	0.301
594.27	0.297
594.47	0.293
594.68	0.289
594.88	0.284
595.08	0.280
595.29	0.276
595.49	0.272
595.69	0.268
595.90	0.264
596.10	0.260
596.30	0.256
596.50	0.252
596.71	0.247
596.91	0.243
597.11	0.240
597.32	0.236
597.52	0.233
597.72	0.230
597.93	0.227
598.13	0.224
598.33	0.221
598.53	0.217
598.74	0.214
598.94	0.211
599.14	0.208
599.35	0.204
599.55	0.202
599.75	0.199
599.95	0.195
600.16	0.192
600.36	0.188
600.56	0.185
600.76	0.183
600.97	0.181
601.17	0.178
601.37	0.175
601.58	0.173
601.78	0.170
601.98	0.167
602.18	0.165
602.39	0.162
602.59	0.160
602.79	0.158
602.99	0.156
603.20	0.153
603.40	0.151
603.60	0.149
603.80	0.147
604.01	0.145
604.21	0.143
604.41	0.141
604.61	0.139
604.82	0.137
605.02	0.135
605.22	0.133
605.42	0.131
605.62	0.130
605.83	0.128
606.03	0.126
606.23	0.124
606.43	0.122
606.64	0.121
606.84	0.119
607.04	0.118
607.24	0.116
607.45	0.115
607.65	0.113
607.85	0.111
608.05	0.110
608.25	0.109
608.46	0.107
608.66	0.106
608.86	0.104
609.06	0.103
609.26	0.101
609.47	0.100
609.67	0.099
609.87	0.097
610.07	0.096
610.28	0.095
610.48	0.093
610.68	0.092
610.88	0.091
611.08	0.090
611.29	0.088
611.49	0.087
611.69	0.086
611.89	0.084
612.09	0.083
612.29	0.082
612.50	0.081
612.70	0.080
612.90	0.079
613.10	0.078
613.30	0.077
613.51	0.076
613.71	0.075
613.91	0.074
614.11	0.074
614.31	0.072
614.51	0.071
614.72	0.071
614.92	0.070
615.12	0.070
615.32	0.068
615.52	0.067
615.72	0.066
615.93	0.065
616.13	0.064
616.33	0.064
616.53	0.063
616.73	0.062
616.93	0.061
617.14	0.060
617.34	0.060
617.54	0.059
617.74	0.059
617.94	0.058
618.14	0.058
618.34	0.057
618.55	0.057
618.75	0.056
618.95	0.055
619.15	0.055
619.35	0.054
619.55	0.053
619.75	0.053
619.96	0.052
620.16	0.051
620.36	0.050
620.56	0.049
620.76	0.049
620.96	0.049
621.16	0.048
621.36	0.047
621.57	0.047
621.77	0.047
621.97	0.046
622.17	0.046
622.37	0.045
622.57	0.045
622.77	0.045
622.97	0.045
623.18	0.044
623.38	0.044
623.58	0.044
623.78	0.043
623.98	0.043
624.18	0.042
624.38	0.042
624.58	0.042
624.78	0.041
624.98	0.041
625.19	0.040
625.39	0.040
625.59	0.040
625.79	0.039
625.99	0.039
626.19	0.039
626.39	0.039
626.59	0.039
626.79	0.038
626.99	0.038
627.19	0.038
627.40	0.038
627.60	0.038
627.80	0.037
628.00	0.037
628.20	0.037
628.40	0.036
628.60	0.036
628.80	0.036
629.00	0.035
629.20	0.035
629.40	0.035
629.60	0.035
629.80	0.034
630.00	0.034
630.20	0.034
630.41	0.034
630.61	0.033
630.81	0.033
631.01	0.032
631.21	0.032
631.41	0.032
631.61	0.031
631.81	0.031
632.01	0.031
632.21	0.031
632.41	0.031
632.61	0.031
632.81	0.031
633.01	0.031
633.21	0.030
633.41	0.031
633.61	0.031
633.81	0.030
634.01	0.030
634.21	0.030
634.41	0.030
634.61	0.030
634.81	0.029
635.01	0.029
635.22	0.029
635.42	0.029
635.62	0.029
635.82	0.029
636.02	0.028
636.22	0.028
636.42	0.028
636.62	0.028
636.82	0.028
637.02	0.028
637.22	0.028
637.42	0.028
637.62	0.028
637.82	0.028
638.02	0.027
638.22	0.027
638.42	0.027
638.62	0.027
638.82	0.027
639.02	0.028
639.22	0.027
639.42	0.027
639.62	0.027
639.82	0.027
640.02	0.027
640.22	0.027
640.42	0.027
640.62	0.027
640.82	0.027
641.02	0.027
641.22	0.027
641.42	0.027
641.61	0.027
641.81	0.027
642.01	0.027
642.21	0.027
642.41	0.027
642.61	0.027
642.81	0.027
643.01	0.027
643.21	0.027
643.41	0.026
643.61	0.026
643.81	0.026
644.01	0.026
644.21	0.026
644.41	0.026
644.61	0.026
644.81	0.025
645.01	0.026
645.21	0.026
645.41	0.026
645.61	0.025
645.81	0.025
646.01	0.025
646.21	0.026
646.40	0.026
646.60	0.026
646.80	0.026
647.00	0.026
647.20	0.026
647.40	0.026
647.60	0.026
647.80	0.026
648.00	0.026
648.20	0.026
648.40	0.026
648.60	0.025
648.80	0.025
649.00	0.025
649.20	0.025
649.39	0.025
649.59	0.025
649.79	0.025
649.99	0.025
650.19	0.024
650.39	0.025
650.59	0.025
650.79	0.025
650.99	0.025
651.19	0.025
651.39	0.025
651.58	0.025
651.78	0.025
651.98	0.025
652.18	0.025
652.38	0.025
652.58	0.025
652.78	0.025
652.98	0.025
653.18	0.025
653.38	0.025
653.57	0.025
653.77	0.025
653.97	0.025
654.17	0.025
654.37	0.025
654.57	0.025
654.77	0.025
654.97	0.025
655.16	0.024
655.36	0.024
655.56	0.024
655.76	0.024
655.96	0.024
656.16	0.024
656.36	0.024
656.56	0.024
656.75	0.023
656.95	0.023
657.15	0.023
657.35	0.023
657.55	0.024
657.75	0.024
657.95	0.024
658.14	0.025
658.34	0.025
658.54	0.024
658.74	0.024
658.94	0.024
659.14	0.025
659.34	0.024
659.53	0.024
659.73	0.024
659.93	0.024
660.13	0.024
660.33	0.024
660.53	0.024
660.72	0.024
660.92	0.024
661.12	0.024
661.32	0.023
661.52	0.023
661.72	0.023
661.91	0.023
662.11	0.023
662.31	0.023
662.51	0.023
662.71	0.023
662.90	0.023
663.10	0.023
663.30	0.023
663.50	0.023
663.70	0.023
663.90	0.023
664.09	0.024
664.29	0.023
664.49	0.023
664.69	0.023
664.89	0.023
665.08	0.023
665.28	0.023
665.48	0.024
665.68	0.023
665.88	0.023
666.07	0.023
666.27	0.023
666.47	0.023
666.67	0.023
666.87	0.023
667.06	0.023
667.26	0.023
667.46	0.022
667.66	0.022
667.85	0.023
668.05	0.022
668.25	0.023
668.45	0.023
668.65	0.023
668.84	0.023
669.04	0.023
669.24	0.023
669.44	0.023
669.63	0.023
669.83	0.023
670.03	0.023
670.23	0.023
670.42	0.023
670.62	0.023
670.82	0.023
671.02	0.023
671.22	0.023
671.41	0.022
671.61	0.022
671.81	0.023
672.01	0.023
672.20	0.023
672.40	0.023
672.60	0.023
672.80	0.022
672.99	0.023
673.19	0.023
673.39	0.023
673.58	0.023
673.78	0.023
673.98	0.023
674.18	0.022
674.37	0.022
674.57	0.022
674.77	0.022
674.97	0.022
675.16	0.022
675.36	0.022
675.56	0.022
675.75	0.022
675.95	0.022
676.15	0.022
676.35	0.022
676.54	0.023
676.74	0.023
676.94	0.023
677.13	0.022
677.33	0.022
677.53	0.022
677.73	0.023
677.92	0.023
678.12	0.023
678.32	0.023
678.51	0.023
678.71	0.023
678.91	0.023
679.11	0.023
679.30	0.023
679.50	0.023
679.70	0.023
679.89	0.023
680.09	0.023
680.29	0.023
680.48	0.023
680.68	0.023
680.88	0.023
681.07	0.023
681.27	0.023
681.47	0.023
681.66	0.023
681.86	0.023
682.06	0.023
682.25	0.023
682.45	0.023
682.65	0.023
682.84	0.022
683.04	0.023
683.24	0.023
683.43	0.023
683.63	0.023
683.83	0.022
684.02	0.022
684.22	0.022
684.42	0.022
684.61	0.022
684.81	0.022
685.01	0.022
685.20	0.022
685.40	0.022
685.60	0.022
685.79	0.022
685.99	0.022
686.19	0.022
686.38	0.022
686.58	0.023
686.77	0.022
686.97	0.022
687.17	0.022
687.36	0.022
687.56	0.022
687.76	0.022
687.95	0.022
688.15	0.022
688.34	0.021
688.54	0.021
688.74	0.021
688.93	0.021
689.13	0.021
689.33	0.022
689.52	0.022
689.72	0.022
689.91	0.022
690.11	0.022
690.31	0.022
690.50	0.022
690.70	0.022
690.89	0.022
691.09	0.022
691.29	0.022
691.48	0.021
691.68	0.021
691.87	0.021
692.07	0.021
692.27	0.021
692.46	0.022
692.66	0.022
692.85	0.022
693.05	0.022
693.25	0.022
693.44	0.022
693.64	0.022
693.83	0.022
694.03	0.022
694.22	0.022
694.42	0.022
694.62	0.022
694.81	0.022
695.01	0.022
695.20	0.022
695.40	0.022
695.59	0.023
695.79	0.023
695.99	0.023
696.18	0.022
696.38	0.022
696.57	0.022
696.77	0.022
696.96	0.022
697.16	0.022
697.36	0.022
697.55	0.021
697.75	0.021
697.94	0.021
698.14	0.021
698.33	0.021
698.53	0.021
698.72	0.021
698.92	0.021
699.11	0.021
699.31	0.021
699.51	0.021
699.70	0.021
699.90	0.021
700.09	0.021
700.29	0.021
700.48	0.022
700.68	0.021
700.87	0.021
701.07	0.021
701.26	0.021
701.46	0.021
701.65	0.021
701.85	0.021
702.04	0.021
702.24	0.021
702.43	0.021
702.63	0.021
702.82	0.021
703.02	0.021
703.21	0.021
703.41	0.020
703.60	0.020
703.80	0.020
703.99	0.020
704.19	0.021
704.38	0.020
704.58	0.020
704.77	0.020
704.97	0.020
705.16	0.020
705.36	0.020
705.55	0.021
705.75	0.021
705.94	0.021
706.14	0.020
706.33	0.020
706.53	0.020
706.72	0.021
706.92	0.020
707.11	0.021
707.31	0.021
707.50	0.021
707.70	0.021
707.89	0.021
708.09	0.021
708.28	0.021
708.48	0.021
708.67	0.021
708.86	0.021
709.06	0.021
709.25	0.021
709.45	0.021
709.64	0.021
709.84	0.021
710.03	0.020
710.23	0.020
710.42	0.020
710.62	0.020
710.81	0.021
711.00	0.020
711.20	0.021
711.39	0.021
711.59	0.021
711.78	0.021
711.98	0.021
712.17	0.021
712.37	0.021
712.56	0.021
712.75	0.021
712.95	0.021
713.14	0.020
713.34	0.020
713.53	0.020
713.73	0.020
713.92	0.019
714.11	0.019
714.31	0.019
714.50	0.019
714.70	0.019
714.89	0.019
715.08	0.019
715.28	0.019
715.47	0.019
715.67	0.019
715.86	0.019
716.06	0.019
716.25	0.020
716.44	0.019
716.64	0.019
716.83	0.019
717.03	0.019
717.22	0.019
717.41	0.018
717.61	0.018
717.80	0.018
717.99	0.018
718.19	0.018
718.38	0.018
718.58	0.018
718.77	0.017
718.96	0.017
719.16	0.017
719.35	0.017
719.55	0.018
719.74	0.018
719.93	0.018
720.13	0.019
720.32	0.019
720.51	0.018
720.71	0.019
720.90	0.019
721.10	0.019
721.29	0.018
721.48	0.019
721.68	0.018
721.87	0.018
722.06	0.018
722.26	0.018
722.45	0.017
722.64	0.017
722.84	0.017
723.03	0.017
723.22	0.017
723.42	0.017
723.61	0.017
723.80	0.017
724.00	0.017
724.19	0.017
724.38	0.017
724.58	0.017
724.77	0.017
724.96	0.017
725.16	0.017
725.35	0.017
725.54	0.017
725.74	0.017
725.93	0.016
726.12	0.016
726.32	0.016
726.51	0.016
726.70	0.016
726.90	0.016
727.09	0.015
727.28	0.015
727.48	0.015
727.67	0.015
727.86	0.015
728.06	0.016
728.25	0.016
728.44	0.015
728.64	0.016
728.83	0.015
729.02	0.016
729.21	0.015
729.41	0.015
729.60	0.015
729.79	0.015
729.99	0.015
730.18	0.014
730.37	0.014
730.56	0.014
730.76	0.013
730.95	0.013
731.14	0.013
731.34	0.013
731.53	0.013
731.72	0.013
731.91	0.013
732.11	0.013
732.30	0.013
732.49	0.013
732.69	0.013
732.88	0.014
733.07	0.014
733.26	0.014
733.46	0.013
733.65	0.013
733.84	0.013
734.03	0.013
734.23	0.012
734.42	0.012
734.61	0.012
734.80	0.012
735.00	0.012
735.19	0.012
735.38	0.013
735.57	0.012
735.77	0.012
735.96	0.012
736.15	0.012
736.34	0.012
736.54	0.013
736.73	0.013
736.92	0.012
737.11	0.013
737.31	0.012
737.50	0.012
737.69	0.012
737.88	0.012
738.07	0.013
738.27	0.013
738.46	0.013
738.65	0.013
738.84	0.013
739.04	0.013
739.23	0.012
739.42	0.013
739.61	0.013
739.80	0.013
740.00	0.012
740.19	0.012
740.38	0.012
740.57	0.012
740.76	0.012
740.96	0.012
741.15	0.012
741.34	0.013
741.53	0.013
741.72	0.013
741.92	0.013
742.11	0.013
742.30	0.013
742.49	0.013
742.68	0.013
742.88	0.013
743.07	0.013
743.26	0.013
743.45	0.013
743.64	0.013
743.84	0.013
744.03	0.013
744.22	0.013
744.41	0.013
744.60	0.013
744.79	0.013
744.99	0.013
745.18	0.013
745.37	0.013
745.56	0.013
745.75	0.013
745.94	0.013
746.14	0.013
746.33	0.013
746.52	0.013
746.71	0.012
746.90	0.012
747.09	0.012
747.28	0.013
747.48	0.013
747.67	0.013
747.86	0.013
748.05	0.013
748.24	0.013
748.43	0.013
748.62	0.014
748.82	0.014
749.01	0.014
749.20	0.014
749.39	0.014
749.58	0.014
749.77	0.014
749.96	0.014
750.16	0.014
750.35	0.014
750.54	0.014
750.73	0.014
750.92	0.014
751.11	0.014
751.30	0.014
751.49	0.014
751.68	0.014
751.88	0.014
752.07	0.014
752.26	0.014
752.45	0.014
752.64	0.014
752.83	0.014
753.02	0.014
753.21	0.014
753.40	0.014
753.60	0.014
753.79	0.014
753.98	0.014
754.17	0.015
754.36	0.015
754.55	0.015
754.74	0.015
754.93	0.015
755.12	0.015
755.31	0.015
755.50	0.015
755.70	0.015
755.89	0.016
756.08	0.016
756.27	0.016
756.46	0.016
756.65	0.016
756.84	0.016
757.03	0.017
757.22	0.017
757.41	0.017
757.60	0.017
757.79	0.017
757.98	0.017
758.17	0.017
758.36	0.017
758.56	0.017
758.75	0.017
758.94	0.017
759.13	0.017
759.32	0.016
759.51	0.016
759.70	0.016
759.89	0.016
760.08	0.016
760.27	0.016
760.46	0.016
760.65	0.016
760.84	0.016
761.03	0.016
761.22	0.016
761.41	0.016
761.60	0.016
761.79	0.016
761.98	0.016
762.17	0.017
762.36	0.017
762.55	0.017
762.74	0.017
762.93	0.017
763.12	0.016
763.31	0.016
763.50	0.016
763.69	0.016
763.88	0.016
764.07	0.016
764.26	0.016
764.45	0.015
764.64	0.015
764.83	0.015
765.02	0.015
765.21	0.015
765.40	0.015
765.59	0.015
765.78	0.015
765.97	0.014
766.16	0.014
766.35	0.014
766.54	0.014
766.73	0.014
766.92	0.014
767.11	0.014
767.30	0.014
767.49	0.014
767.68	0.014
767.87	0.014
768.06	0.013
768.25	0.013
768.44	0.013
768.63	0.013
768.82	0.013
769.01	0.013
769.20	0.013
769.39	0.013
769.58	0.013
769.77	0.012
769.96	0.012
770.15	0.012
770.34	0.012
770.53	0.012
770.72	0.012
770.91	0.012
771.10	0.012
771.29	0.012
771.47	0.012
771.66	0.012
771.85	0.012
772.04	0.012
772.23	0.012
772.42	0.012
772.61	0.012
772.80	0.012
772.99	0.012
773.18	0.012
773.37	0.012
773.56	0.012
773.75	0.012
773.94	0.012
774.13	0.012
774.31	0.013
774.50	0.013
774.69	0.012
774.88	0.012
775.07	0.012
775.26	0.013
775.45	0.012
775.64	0.012
775.83	0.012
776.02	0.012
776.21	0.012
776.40	0.012
776.58	0.012
776.77	0.012
776.96	0.012
777.15	0.012
777.34	0.012
777.53	0.012
777.72	0.012
777.91	0.012
778.10	0.012
778.28	0.011
778.47	0.012
778.66	0.012
778.85	0.012
779.04	0.012
779.23	0.011
779.42	0.011
779.61	0.011
779.79	0.012
779.98	0.011
780.17	0.011
780.36	0.012
780.55	0.011
780.74	0.011
780.93	0.012
781.12	0.011
781.30	0.012
781.49	0.011
781.68	0.011
781.87	0.011
782.06	0.011
782.25	0.011
782.44	0.011
782.62	0.011
782.81	0.011
783.00	0.011
783.19	0.011
783.38	0.011
783.57	0.011
783.75	0.011
783.94	0.011
784.13	0.011
784.32	0.011
784.51	0.011
784.70	0.011
784.88	0.011
785.07	0.011
785.26	0.011
785.45	0.011
785.64	0.012
785.83	0.011
786.01	0.011
786.20	0.011
786.39	0.011
786.58	0.011
786.77	0.011
786.95	0.011
787.14	0.011
787.33	0.011
787.52	0.011
787.71	0.011
787.90	0.011
788.08	0.011
788.27	0.011
788.46	0.012
788.65	0.012
788.84	0.012
789.02	0.012
789.21	0.012
789.40	0.012
789.59	0.012
789.77	0.012
789.96	0.012
790.15	0.012
790.34	0.013
790.53	0.012
790.71	0.012
790.90	0.012
791.09	0.012
791.28	0.012
791.46	0.012
791.65	0.012
791.84	0.012
792.03	0.012
792.22	0.013
792.40	0.012
792.59	0.012
792.78	0.013
792.97	0.013
793.15	0.013
793.34	0.013
793.53	0.013
793.72	0.013
793.90	0.013
794.09	0.013
794.28	0.013
794.47	0.013
794.65	0.014
794.84	0.014
795.03	0.014
795.22	0.014
795.40	0.014
795.59	0.014
795.78	0.013
795.97	0.013
796.15	0.013
796.34	0.013
796.53	0.013
796.71	0.013
796.90	0.013
797.09	0.013
797.28	0.013
797.46	0.014
797.65	0.014
797.84	0.014
798.02	0.014
798.21	0.014
798.40	0.014
798.59	0.014
798.77	0.014
798.96	0.014
799.15	0.014
799.33	0.014
799.52	0.014
799.71	0.014
799.90	0.014
800.08	0.014
800.27	0.014
800.46	0.014
800.64	0.014
800.83	0.013
801.02	0.013
801.20	0.013
801.39	0.013
801.58	0.013
801.76	0.013
801.95	0.013
802.14	0.013
802.32	0.013
802.51	0.013
802.70	0.013
802.88	0.013
803.07	0.014
803.26	0.014
803.44	0.014
803.63	0.014
803.82	0.014
804.00	0.014
804.19	0.014
804.38	0.014
804.56	0.014
804.75	0.014
804.94	0.014
805.12	0.014
805.31	0.014
805.50	0.014
805.68	0.015
805.87	0.014
806.06	0.015
806.24	0.015
806.43	0.015
806.62	0.015
806.80	0.015
806.99	0.015
807.17	0.015
807.36	0.015
807.55	0.015
807.73	0.015
807.92	0.015
808.11	0.015
808.29	0.015
808.48	0.014
808.66	0.014
808.85	0.014
809.04	0.014
809.22	0.014
809.41	0.014
809.59	0.014
809.78	0.014
809.97	0.014
810.15	0.014
810.34	0.014
810.53	0.014
810.71	0.014
810.90	0.014
811.08	0.014
811.27	0.014
811.45	0.014
811.64	0.014
811.83	0.013
812.01	0.013
812.20	0.014
812.38	0.014
812.57	0.014
812.76	0.014
812.94	0.014
813.13	0.014
813.31	0.013
813.50	0.014
813.68	0.013
813.87	0.013
814.06	0.014
814.24	0.014
814.43	0.014
814.61	0.014
814.80	0.014
814.98	0.014
815.17	0.014
815.36	0.014
815.54	0.014
815.73	0.014
815.91	0.015
816.10	0.015
816.28	0.014
816.47	0.015
816.65	0.014
816.84	0.014
817.03	0.014
817.21	0.014
817.40	0.014
817.58	0.014
817.77	0.014
817.95	0.013
818.14	0.013
818.32	0.014
818.51	0.013
818.69	0.013
818.88	0.014
819.06	0.014
819.25	0.014
819.43	0.014
819.62	0.014
819.80	0.014
819.99	0.014
820.18	0.014
820.36	0.014
820.55	0.014
820.73	0.014
820.92	0.014
821.10	0.014
821.29	0.014
821.47	0.013
821.66	0.013
821.84	0.014
822.03	0.014
822.21	0.014
822.40	0.014
822.58	0.014
822.77	0.014
822.95	0.014
823.14	0.014
823.32	0.014
823.50	0.014
823.69	0.014
823.87	0.014
824.06	0.013
824.24	0.013
824.43	0.013
824.61	0.013
824.80	0.013
824.98	0.013
825.17	0.012
825.35	0.012
825.54	0.012
825.72	0.012
825.91	0.012
826.09	0.012
826.28	0.012
826.46	0.012
826.64	0.012
826.83	0.011
827.01	0.012
827.20	0.012
827.38	0.012
827.57	0.012
827.75	0.011
827.94	0.012
828.12	0.011
828.31	0.011
828.49	0.011
828.67	0.011
828.86	0.011
829.04	0.010
829.23	0.010
829.41	0.010
829.60	0.010
829.78	0.010
829.96	0.010
830.15	0.010
830.33	0.010
830.52	0.010
830.70	0.010
830.88	0.010
831.07	0.010
831.25	0.010
831.44	0.010
831.62	0.010
831.81	0.010
831.99	0.010
832.17	0.010
832.36	0.010
832.54	0.009
832.73	0.009
832.91	0.009
833.09	0.009
833.28	0.009
833.46	0.009
833.65	0.009
833.83	0.009
834.01	0.008
834.20	0.009
834.38	0.009
834.56	0.009
834.75	0.009
834.93	0.009
835.12	0.009
835.30	0.009
835.48	0.008
835.67	0.008
835.85	0.008
836.03	0.008
836.22	0.008
836.40	0.008
836.59	0.008
836.77	0.008
836.95	0.007
837.14	0.007
837.32	0.008
837.50	0.008
837.69	0.008
837.87	0.008
838.05	0.008
838.24	0.009
838.42	0.008
838.60	0.008
838.79	0.009
838.97	0.009
839.15	0.009
839.34	0.009
839.52	0.008
839.70	0.008
839.89	0.008
840.07	0.008
840.25	0.008
840.44	0.008
840.62	0.008
840.80	0.007
840.99	0.007
841.17	0.007
841.35	0.007
841.54	0.007
841.72	0.007
841.90	0.007
842.09	0.007
842.27	0.007
842.45	0.007
842.64	0.006
842.82	0.006
843.00	0.007
843.19	0.007
843.37	0.007
843.55	0.006
843.73	0.006
843.92	0.006
844.10	0.007
844.28	0.006
844.47	0.006
844.65	0.007
844.83	0.007
845.01	0.007
845.20	0.007
845.38	0.006
845.56	0.007
845.75	0.006
845.93	0.006
846.11	0.006
846.29	0.007
846.48	0.007
846.66	0.007
846.84	0.007
847.02	0.007
847.21	0.007
847.39	0.007
847.57	0.007
847.76	0.007
847.94	0.007
848.12	0.007
848.30	0.007
848.49	0.007
848.67	0.007
848.85	0.007
849.03	0.006
849.22	0.006
849.40	0.007
849.58	0.007
849.76	0.006
849.95	0.007
850.13	0.007
850.31	0.007
850.49	0.007
850.67	0.007
850.86	0.007
851.04	0.007
851.22	0.007
851.40	0.007
851.59	0.007
851.77	0.007
851.95	0.007
852.13	0.006
852.31	0.006
852.50	0.006
852.68	0.006
852.86	0.006
853.04	0.006
853.23	0.006
853.41	0.006
853.59	0.006
853.77	0.006
853.95	0.006
854.14	0.006
854.32	0.006
854.50	0.006
854.68	0.006
854.86	0.006
855.04	0.006
855.23	0.006
855.41	0.005
855.59	0.005
855.77	0.005
855.95	0.005
856.14	0.005
856.32	0.004
856.50	0.004
856.68	0.004
856.86	0.004
857.04	0.004
857.23	0.004
857.41	0.004
857.59	0.004
857.77	0.004
857.95	0.004
858.13	0.004
858.32	0.005
858.50	0.005
858.68	0.005
858.86	0.005
859.04	0.005
859.22	0.005
859.41	0.005
859.59	0.005
859.77	0.005
859.95	0.005
860.13	0.005
860.31	0.005
860.49	0.005
860.68	0.005
860.86	0.005
861.04	0.005
861.22	0.005
861.40	0.005
861.58	0.005
861.76	0.005
861.94	0.005
862.13	0.005
862.31	0.005
862.49	0.006
862.67	0.005
862.85	0.005
863.03	0.005
863.21	0.005
863.39	0.005
863.57	0.005
863.76	0.004
863.94	0.005
864.12	0.005
864.30	0.005
864.48	0.004
864.66	0.005
864.84	0.004
865.02	0.004
865.20	0.004
865.38	0.004
865.57	0.004
865.75	0.005
865.93	0.004
866.11	0.004
866.29	0.004
866.47	0.005
866.65	0.004
866.83	0.005
867.01	0.005
867.19	0.005
867.37	0.005
867.55	0.005
867.73	0.005
867.92	0.006
868.10	0.006
868.28	0.006
868.46	0.006
868.64	0.006
868.82	0.006
869.00	0.006
869.18	0.006
869.36	0.007
869.54	0.007
869.72	0.007
869.90	0.007
870.08	0.007
870.26	0.008
870.44	0.008
870.62	0.008
870.80	0.008
870.98	0.008
871.16	0.008
871.34	0.008
871.53	0.008
871.71	0.008
871.89	0.008
872.07	0.008
872.25	0.008
872.43	0.008
872.61	0.008
872.79	0.008
872.97	0.008
873.15	0.008
873.33	0.008
873.51	0.008
873.69	0.008
873.87	0.008
874.05	0.009
874.23	0.009
874.41	0.009
874.59	0.009
874.77	0.009
874.95	0.009
875.13	0.009
875.31	0.009
875.49	0.009
875.67	0.009
875.85	0.009
876.03	0.009
876.21	0.009
876.39	0.008
876.57	0.008
876.75	0.008
876.93	0.008
877.11	0.008
877.29	0.008
877.47	0.008
877.65	0.008
877.82	0.008
878.00	0.008
878.18	0.008
878.36	0.008
878.54	0.008
878.72	0.008
878.90	0.008
879.08	0.009
879.26	0.009
879.44	0.008
879.62	0.008
879.80	0.008
879.98	0.008
880.16	0.008
880.34	0.008
880.52	0.008
880.70	0.008
880.88	0.008
881.06	0.008
881.24	0.008
881.42	0.008
881.59	0.008
881.77	0.007
881.95	0.007
882.13	0.007
882.31	0.007
882.49	0.007
882.67	0.007
882.85	0.007
883.03	0.007
883.21	0.008
883.39	0.007
883.57	0.008
883.75	0.008
883.92	0.008
884.10	0.008
884.28	0.008
884.46	0.007
884.64	0.007
884.82	0.007
885.00	0.007
885.18	0.007
885.36	0.007
885.54	0.006
885.71	0.006
885.89	0.006
886.07	0.006
886.25	0.007
886.43	0.006
886.61	0.007
886.79	0.007
886.97	0.006
887.15	0.007
887.32	0.007
887.50	0.007
887.68	0.007
887.86	0.007
888.04	0.007
888.22	0.007
888.40	0.007
888.57	0.007
888.75	0.007
888.93	0.007
889.11	0.007
889.29	0.006
889.47	0.007
889.65	0.007
889.82	0.007
890.00	0.007
890.18	0.007
890.36	0.007
890.54	0.007
890.72	0.007
890.90	0.007
891.07	0.007
891.25	0.008
891.43	0.008
891.61	0.008
891.79	0.009
891.97	0.009
892.14	0.009
892.32	0.009
892.50	0.009
892.68	0.010
892.86	0.010
893.03	0.010
893.21	0.010
893.39	0.010
893.57	0.010
893.75	0.010
893.93	0.010
894.10	0.010
894.28	0.010
894.46	0.010
894.64	0.010
894.82	0.010
894.99	0.010
895.17	0.010
895.35	0.010
895.53	0.010
895.71	0.009
895.88	0.009
896.06	0.009
896.24	0.009
896.42	0.009
896.59	0.009
896.77	0.009
896.95	0.009
897.13	0.009
897.31	0.008
897.48	0.009
897.66	0.009
897.84	0.009
898.02	0.009
898.19	0.009
898.37	0.010
898.55	0.010
898.73	0.010
898.91	0.010
899.08	0.010
899.26	0.010
899.44	0.011
899.62	0.011
899.79	0.010
899.97	0.011
900.15	0.010
900.33	0.010
900.50	0.011
900.68	0.011
900.86	0.011
901.04	0.011
901.21	0.011
901.39	0.011
901.57	0.011
901.74	0.011
901.92	0.011
902.10	0.011
902.28	0.011
902.45	0.011
902.63	0.011
902.81	0.011
902.99	0.011
903.16	0.011
903.34	0.011
903.52	0.011
903.69	0.011
903.87	0.011
904.05	0.011
904.22	0.011
904.40	0.011
904.58	0.012
904.76	0.012
904.93	0.012
905.11	0.012
905.29	0.012
905.46	0.013
905.64	0.013
905.82	0.013
905.99	0.013
906.17	0.014
906.35	0.014
906.53	0.014
906.70	0.014
906.88	0.014
907.06	0.015
907.23	0.015
907.41	0.015
907.59	0.016
907.76	0.016
907.94	0.016
908.12	0.016
908.29	0.017
908.47	0.017
908.65	0.018
908.82	0.018
909.00	0.018
909.18	0.019
909.35	0.019
909.53	0.019
909.71	0.020
909.88	0.020
910.06	0.020
910.23	0.020
910.41	0.021
910.59	0.021
910.76	0.022
910.94	0.022
911.12	0.023
911.29	0.023
911.47	0.023
911.65	0.023
911.82	0.023
912.00	0.024
912.17	0.024
912.35	0.024
912.53	0.025
912.70	0.025
912.88	0.024
913.06	0.025
913.23	0.025
913.41	0.025
913.58	0.026
913.76	0.026
913.94	0.026
914.11	0.027
914.29	0.027
914.46	0.027
914.64	0.027
914.82	0.028
914.99	0.028
915.17	0.028
915.34	0.028
915.52	0.029
915.70	0.029
915.87	0.029
916.05	0.029
916.22	0.030
916.40	0.030
916.57	0.030
916.75	0.030
916.93	0.030
917.10	0.031
917.28	0.032
917.45	0.032
917.63	0.032
917.80	0.033
917.98	0.033
918.16	0.033
918.33	0.033
918.51	0.034
918.68	0.034
918.86	0.035
919.03	0.035
919.21	0.035
919.39	0.035
919.56	0.035
919.74	0.035
919.91	0.035
920.09	0.035
920.26	0.036
920.44	0.036
920.61	0.036
920.79	0.036
920.96	0.037
921.14	0.037
921.31	0.037
921.49	0.038
921.67	0.038
921.84	0.038
922.02	0.039
922.19	0.039
922.37	0.039
922.54	0.040
922.72	0.040
922.89	0.040
923.07	0.041
923.24	0.041
923.42	0.041
923.59	0.042
923.77	0.042
923.94	0.042
924.12	0.042
924.29	0.043
924.47	0.043
924.64	0.043
924.82	0.043
924.99	0.044
925.17	0.044
925.34	0.045
925.52	0.045
925.69	0.045
925.87	0.045
926.04	0.045
926.22	0.045
926.39	0.045
926.57	0.045
926.74	0.046
926.91	0.046
927.09	0.045
927.26	0.045
927.44	0.045
927.61	0.045
927.79	0.045
927.96	0.044
928.14	0.044
928.31	0.044
928.49	0.043
928.66	0.044
928.84	0.043
929.01	0.043
929.18	0.043
929.36	0.042
929.53	0.042
929.71	0.042
929.88	0.042
930.06	0.041
930.23	0.041
930.41	0.040
930.58	0.039
930.75	0.039
930.93	0.039
931.10	0.038
931.28	0.037
931.45	0.036
931.63	0.035
931.80	0.034
931.97	0.033
932.15	0.032
932.32	0.032
932.50	0.031
932.67	0.030
932.84	0.029
933.02	0.028
933.19	0.027
933.37	0.026
933.54	0.026
933.71	0.025
933.89	0.024
934.06	0.023
934.24	0.022
934.41	0.021
934.58	0.020
934.76	0.019
934.93	0.018
935.11	0.016
935.28	0.015
935.45	0.014
935.63	0.013
935.80	0.012
935.98	0.011
936.15	0.009
936.32	0.008
936.50	0.006
936.67	0.005
936.84	0.003
937.02	0.002
937.19	0.000
937.36	-0.001
937.54	-0.003
937.71	-0.004
937.89	-0.005
938.06	-0.007
938.23	-0.008
938.41	-0.009
938.58	-0.011
938.75	-0.012
938.93	-0.013
939.10	-0.014
939.27	-0.015
939.45	-0.017
939.62	-0.018
939.79	-0.020
939.97	-0.021
940.14	-0.022
940.31	-0.024
940.49	-0.025
940.66	-0.027
940.83	-0.028
941.01	-0.030
941.18	-0.031
941.35	-0.033
941.53	-0.034
941.70	-0.035
941.87	-0.036
942.05	-0.038
942.22	-0.039
942.39	-0.040
942.57	-0.041
942.74	-0.043
942.91	-0.044
943.08	-0.045
943.26	-0.046
943.43	-0.047
943.60	-0.049
943.78	-0.050
943.95	-0.051
944.12	-0.052
944.29	-0.053
944.47	-0.054
944.64	-0.056
944.81	-0.057
944.99	-0.059
945.16	-0.060
945.33	-0.062
945.50	-0.063
945.68	-0.064
945.85	-0.066
946.02	-0.067
946.20	-0.068
946.37	-0.070
946.54	-0.071
946.71	-0.072
946.89	-0.072
947.06	-0.074
947.23	-0.075
947.40	-0.076
947.58	-0.077
947.75	-0.079
947.92	-0.080
948.09	-0.081
948.27	-0.082
948.44	-0.084
948.61	-0.085
948.78	-0.087
948.96	-0.088
949.13	-0.089
949.30	-0.091
949.47	-0.092
949.65	-0.093
949.82	-0.094
949.99	-0.096
950.16	-0.098
950.33	-0.099
950.51	-0.100
950.68	-0.102
950.85	-0.103
951.02	-0.105
951.20	-0.106
951.37	-0.108
951.54	-0.109
951.71	-0.111
951.88	-0.113
952.06	-0.114
952.23	-0.115
952.40	-0.117
952.57	-0.118
952.74	-0.120
952.92	-0.121
953.09	-0.123
953.26	-0.124
953.43	-0.125
953.60	-0.126
953.77	-0.127
953.95	-0.129
954.12	-0.130
954.29	-0.132
954.46	-0.133
954.63	-0.134
954.81	-0.135
954.98	-0.137
955.15	-0.138
955.32	-0.139
955.49	-0.141
955.66	-0.143
955.84	-0.144
956.01	-0.145
956.18	-0.146
956.35	-0.147
956.52	-0.148
956.69	-0.149
956.87	-0.150
957.04	-0.152
957.21	-0.153
957.38	-0.153
957.55	-0.154
957.72	-0.155
957.89	-0.156
958.07	-0.157
958.24	-0.158
958.41	-0.158
958.58	-0.160
958.75	-0.160
958.92	-0.162
959.09	-0.162
959.26	-0.163
959.44	-0.164
959.61	-0.166
959.78	-0.167
959.95	-0.167
960.12	-0.168
960.29	-0.168
960.46	-0.169
960.63	-0.170
960.81	-0.170
960.98	-0.170
961.15	-0.171
961.32	-0.172
961.49	-0.172
961.66	-0.172
961.83	-0.173
962.00	-0.173
962.17	-0.174
962.34	-0.174
962.52	-0.174
962.69	-0.175
962.86	-0.175
963.03	-0.175
963.20	-0.176
963.37	-0.176
963.54	-0.176
963.71	-0.176
963.88	-0.177
964.05	-0.177
964.22	-0.178
964.39	-0.178
964.56	-0.178
964.74	-0.179
964.91	-0.179
965.08	-0.178
965.25	-0.178
965.42	-0.179
965.59	-0.179
965.76	-0.179
965.93	-0.179
966.10	-0.180
966.27	-0.180
966.44	-0.180
966.61	-0.180
966.78	-0.180
966.95	-0.181
967.12	-0.181
967.29	-0.181
967.46	-0.181
967.63	-0.181
967.80	-0.182
967.97	-0.182
968.14	-0.182
968.32	-0.182
968.49	-0.182
968.66	-0.182
968.83	-0.182
969.00	-0.182
969.17	-0.182
969.34	-0.182
969.51	-0.182
969.68	-0.182
969.85	-0.182
970.02	-0.183
970.19	-0.183
970.36	-0.183
970.53	-0.184
970.70	-0.184
970.87	-0.184
971.04	-0.184
971.21	-0.184
971.38	-0.185
971.55	-0.184
971.72	-0.185
971.89	-0.185
972.06	-0.185
972.23	-0.185
972.40	-0.185
972.57	-0.186
972.74	-0.186
972.91	-0.186
973.07	-0.186
973.24	-0.187
973.41	-0.187
973.58	-0.187
973.75	-0.186
973.92	-0.187
974.09	-0.187
974.26	-0.186
974.43	-0.186
974.60	-0.186
974.77	-0.186
974.94	-0.186
975.11	-0.186
975.28	-0.186
975.45	-0.185
975.62	-0.185
975.79	-0.185
975.96	-0.186
976.13	-0.186
976.30	-0.186
976.47	-0.186
976.64	-0.186
976.80	-0.186
976.97	-0.187
977.14	-0.186
977.31	-0.186
977.48	-0.186
977.65	-0.186
977.82	-0.186
977.99	-0.186
978.16	-0.185
978.33	-0.185
978.50	-0.185
978.67	-0.185
978.83	-0.185
979.00	-0.185
979.17	-0.185
979.34	-0.185
979.51	-0.185
979.68	-0.185
979.85	-0.184
980.02	-0.184
980.19	-0.184
980.36	-0.184
980.52	-0.184
980.69	-0.184
980.86	-0.184
981.03	-0.183
981.20	-0.183
981.37	-0.183
981.54	-0.183
981.71	-0.183
981.88	-0.182
982.04	-0.182
982.21	-0.181
982.38	-0.181
982.55	-0.181
982.72	-0.181
982.89	-0.180
983.06	-0.180
983.22	-0.180
983.39	-0.179
983.56	-0.179
983.73	-0.179
983.90	-0.179
984.07	-0.179
984.24	-0.178
984.40	-0.178
984.57	-0.178
984.74	-0.178
984.91	-0.178
985.08	-0.177
985.25	-0.177
985.41	-0.177
985.58	-0.176
985.75	-0.176
985.92	-0.176
986.09	-0.176
986.26	-0.176
986.42	-0.175
986.59	-0.175
986.76	-0.175
986.93	-0.175
987.10	-0.175
987.27	-0.175
987.43	-0.175
987.60	-0.174
987.77	-0.174
987.94	-0.173
988.11	-0.172
988.27	-0.172
988.44	-0.172
988.61	-0.171
988.78	-0.170
988.95	-0.169
989.11	-0.169
989.28	-0.168
989.45	-0.168
989.62	-0.168
989.79	-0.168
989.95	-0.168
990.12	-0.168
990.29	-0.168
990.46	-0.168
990.62	-0.167
990.79	-0.167
990.96	-0.166
991.13	-0.166
991.30	-0.166
991.46	-0.164
991.63	-0.164
991.80	-0.163
991.97	-0.162
992.13	-0.161
992.30	-0.161
992.47	-0.161
992.64	-0.160
992.80	-0.161
992.97	-0.160
993.14	-0.159
993.31	-0.159
993.47	-0.159
993.64	-0.159
993.81	-0.159
993.98	-0.158
994.14	-0.158
994.31	-0.158
994.48	-0.157
994.64	-0.156
994.81	-0.157
994.98	-0.156
995.15	-0.156
995.31	-0.155
995.48	-0.155
995.65	-0.154
995.82	-0.154
995.98	-0.154
996.15	-0.154
996.32	-0.154
996.48	-0.153
996.65	-0.152
996.82	-0.152
996.99	-0.151
997.15	-0.151
997.32	-0.150
997.49	-0.150
997.65	-0.149
997.82	-0.149
997.99	-0.148
998.15	-0.148
998.32	-0.147
998.49	-0.147
998.65	-0.147
998.82	-0.147
998.99	-0.146
999.15	-0.146
999.32	-0.145
999.49	-0.145
999.65	-0.144
999.82	-0.143
999.99	-0.143
1000.15	-0.143
1000.32	-0.142
1000.49	-0.142
1000.65	-0.142
1000.82	-0.141
1000.99	-0.141
1001.15	-0.140
1001.32	-0.139
1001.49	-0.140
1001.65	-0.139
1001.82	-0.139
1001.99	-0.138
1002.15	-0.138
1002.32	-0.137
1002.49	-0.136
1002.65	-0.136
1002.82	-0.135
1002.99	-0.135
1003.15	-0.134
1003.32	-0.134
1003.48	-0.133
1003.65	-0.132
1003.82	-0.133
1003.98	-0.132
1004.15	-0.132
1004.32	-0.131
1004.48	-0.130
1004.65	-0.130
1004.81	-0.130
1004.98	-0.129
1005.15	-0.128
1005.31	-0.127
1005.48	-0.127
1005.64	-0.126
1005.81	-0.125
1005.98	-0.125
1006.14	-0.125
1006.31	-0.124
1006.47	-0.124
1006.64	-0.123
1006.81	-0.123
1006.97	-0.122
1007.14	-0.122
1007.30	-0.121
1007.47	-0.121
1007.63	-0.120
1007.80	-0.119
1007.97	-0.120
1008.13	-0.119
1008.30	-0.119
1008.46	-0.118
1008.63	-0.118
1008.79	-0.118
1008.96	-0.118
1009.13	-0.117
1009.29	-0.116
1009.46	-0.116
1009.62	-0.115
1009.79	-0.114
1009.95	-0.114
1010.12	-0.113
1010.28	-0.113
1010.45	-0.112
1010.62	-0.111
1010.78	-0.110
1010.95	-0.110
1011.11	-0.110
1011.28	-0.110
1011.44	-0.109
1011.61	-0.109
1011.77	-0.108
1011.94	-0.107
1012.10	-0.106
1012.27	-0.106
1012.43	-0.105
1012.60	-0.104
1012.76	-0.104
1012.93	-0.104
1013.10	-0.103
1013.26	-0.102
1013.43	-0.101
1013.59	-0.100
1013.76	-0.100
1013.92	-0.098
1014.09	-0.097
1014.25	-0.096
1014.42	-0.096
1014.58	-0.094
1014.75	-0.093
1014.91	-0.093
1015.08	-0.092
1015.24	-0.092
1015.41	-0.091
1015.57	-0.091
1015.73	-0.090
1015.90	-0.090
1016.06	-0.091
1016.23	-0.090
1016.39	-0.091
1016.56	-0.091
1016.72	-0.090
1016.89	-0.091
1017.05	-0.090
1017.22	-0.090
1017.38	-0.089
1017.55	-0.089
1017.71	-0.089
1017.88	-0.088
1018.04	-0.088
1018.21	-0.087
1018.37	-0.086
1018.53	-0.085
1018.70	-0.084
1018.86	-0.084
1019.03	-0.084
1019.19	-0.084
1019.36	-0.084
1019.52	-0.084
1019.69	-0.085
1019.85	-0.084
1020.01	-0.084
1020.18	-0.084
1020.34	-0.084
1020.51	-0.084
1020.67	-0.084
1020.84	-0.083
1021.00	-0.083
1021.16	-0.082
1021.33	-0.081
1021.49	-0.080
1021.66	-0.079
1021.82	-0.079
1021.98	-0.077
1022.15	-0.077
1022.31	-0.076
1022.48	-0.075
1022.64	-0.075
1022.80	-0.074
1022.97	-0.073
1023.13	-0.073
1023.30	-0.073
1023.46	-0.073
1023.62	-0.073
1023.79	-0.074
1023.95	-0.073
1024.12	-0.072
1024.28	-0.071
1024.44	-0.072
1024.61	-0.071
1024.77	-0.072
1024.93	-0.071
1025.10	-0.070
1025.26	-0.069
1025.43	-0.069
1025.59	-0.068
1025.75	-0.067
1025.92	-0.067
1026.08	-0.067
1026.24	-0.066
1026.41	-0.066
1026.57	-0.065
1026.73	-0.066
1026.90	-0.066
1027.06	-0.065
1027.23	-0.064
1027.39	-0.063
1027.55	-0.063
1027.72	-0.062
1027.88	-0.061
1028.04	-0.060
1028.21	-0.060
1028.37	-0.058
1028.53	-0.058
1028.70	-0.057
1028.86	-0.058
1029.02	-0.057
1029.19	-0.058
1029.35	-0.058
1029.51	-0.057
1029.67	-0.057
1029.84	-0.056
1030.00	-0.056
1030.16	-0.056
1030.33	-0.055
1030.49	-0.055
1030.65	-0.055
1030.82	-0.055
1030.98	-0.054
1031.14	-0.053
1031.31	-0.053
1031.47	-0.053
1031.63	-0.053
1031.79	-0.051
1031.96	-0.053
1032.12	-0.052
1032.28	-0.052
1032.45	-0.051
1032.61	-0.050
1032.77	-0.050
1032.93	-0.050
1033.10	-0.049
1033.26	-0.047
1033.42	-0.048
1033.58	-0.047
1033.75	-0.045
1033.91	-0.045
1034.07	-0.045
1034.24	-0.045
1034.40	-0.043
1034.56	-0.042
1034.72	-0.041
1034.89	-0.041
1035.05	-0.041
1035.21	-0.040
1035.37	-0.041
1035.54	-0.042
1035.70	-0.040
1035.86	-0.040
1036.02	-0.040
1036.19	-0.040
1036.35	-0.041
1036.51	-0.041
1036.67	-0.042
1036.83	-0.041
1037.00	-0.041
1037.16	-0.040
1037.32	-0.040
1037.48	-0.040
1037.65	-0.039
1037.81	-0.038
1037.97	-0.038
1038.13	-0.038
1038.29	-0.036
1038.46	-0.036
1038.62	-0.037
1038.78	-0.037
1038.94	-0.036
1039.10	-0.036
1039.27	-0.037
1039.43	-0.037
1039.59	-0.035
1039.75	-0.036
1039.91	-0.035
1040.08	-0.035
1040.24	-0.036
1040.40	-0.036
1040.56	-0.034
1040.72	-0.034
1040.89	-0.033
1041.05	-0.033
1041.21	-0.033
1041.37	-0.034
1041.53	-0.032
1041.69	-0.031
1041.86	-0.032
1042.02	-0.031
1042.18	-0.031
1042.34	-0.031
1042.50	-0.031
1042.66	-0.031
1042.83	-0.029
1042.99	-0.029
1043.15	-0.030
1043.31	-0.030
1043.47	-0.032
1043.63	-0.031
1043.79	-0.032
1043.96	-0.031
1044.12	-0.031
1044.28	-0.030
1044.44	-0.031
1044.60	-0.031
1044.76	-0.031
1044.92	-0.031
1045.09	-0.031
1045.25	-0.029
1045.41	-0.029
1045.57	-0.029
1045.73	-0.029
1045.89	-0.030
1046.05	-0.030
1046.21	-0.027
1046.38	-0.032
1046.54	-0.031
1046.70	-0.038
1046.86	-0.023
>>>>>End Processed Spectral Data<<<<<
