SpectraSuite Data File
++++++++++++++++++++++++++++++++++++
Date: Mon May 06 13:35:09 CDT 2013
User: Students
Dark Spectrum Present: Yes
Reference Spectrum Present: Yes
Number of Sampled Component Spectra: 1
Spectrometers: USB4H00887
Integration Time (usec): 50000 (USB4H00887)
Spectra Averaged: 10 (USB4H00887)
Boxcar Smoothing: 5 (USB4H00887)
Correct for Electrical Dark: No (USB4H00887)
Strobe/Lamp Enabled: No (USB4H00887)
Correct for Detector Non-linearity: No (USB4H00887)
Correct for Stray Light: No (USB4H00887)
Number of Pixels in Processed Spectrum: 3648
>>>>>Begin Processed Spectral Data<<<<<
345.83	0.087
346.05	0.087
346.26	0.087
346.48	1.114
346.70	-0.000
346.92	-0.036
347.14	-0.058
347.35	-0.123
347.57	-0.161
347.79	-0.152
348.01	-0.247
348.23	-0.302
348.44	-0.292
348.66	-0.197
348.88	-0.158
349.10	-0.159
349.32	-0.086
349.53	-0.056
349.75	-0.073
349.97	-0.055
350.19	-0.050
350.41	-0.070
350.62	-0.074
350.84	-0.077
351.06	-0.081
351.28	-0.066
351.50	-0.071
351.71	-0.105
351.93	-0.115
352.15	-0.066
352.37	-0.120
352.58	-0.090
352.80	-0.072
353.02	-0.059
353.24	-0.079
353.46	-0.054
353.67	-0.137
353.89	-0.102
354.11	-0.036
354.33	-0.044
354.54	-0.089
354.76	-0.050
354.98	-0.033
355.20	-0.059
355.41	-0.043
355.63	-0.022
355.85	-0.033
356.07	0.019
356.28	0.016
356.50	0.001
356.72	0.019
356.94	0.005
357.15	0.041
357.37	0.007
357.59	0.020
357.81	0.004
358.02	0.040
358.24	0.046
358.46	0.045
358.68	0.031
358.89	0.019
359.11	-0.003
359.33	0.028
359.55	-0.001
359.76	0.044
359.98	0.054
360.20	0.049
360.42	0.025
360.63	0.014
360.85	0.032
361.07	0.047
361.29	0.020
361.50	0.014
361.72	0.008
361.94	0.009
362.15	-0.032
362.37	-0.034
362.59	-0.029
362.81	-0.038
363.02	-0.057
363.24	-0.084
363.46	-0.073
363.68	-0.049
363.89	-0.043
364.11	-0.057
364.33	-0.071
364.54	-0.023
364.76	-0.020
364.98	-0.007
365.20	-0.008
365.41	0.055
365.63	0.067
365.85	0.045
366.06	0.027
366.28	0.016
366.50	0.041
366.71	0.084
366.93	0.041
367.15	0.063
367.37	0.047
367.58	0.038
367.80	0.006
368.02	0.016
368.23	0.020
368.45	0.009
368.67	0.038
368.88	0.056
369.10	0.050
369.32	0.033
369.53	0.033
369.75	0.072
369.97	0.082
370.19	0.086
370.40	0.110
370.62	0.119
370.84	0.143
371.05	0.145
371.27	0.125
371.49	0.139
371.70	0.167
371.92	0.142
372.14	0.117
372.35	0.141
372.57	0.152
372.79	0.090
373.00	0.076
373.22	0.079
373.44	0.048
373.65	0.052
373.87	0.035
374.09	0.008
374.30	0.006
374.52	0.002
374.74	-0.006
374.95	-0.010
375.17	0.039
375.39	0.081
375.60	0.059
375.82	0.060
376.04	0.062
376.25	0.050
376.47	0.060
376.68	0.069
376.90	0.088
377.12	0.110
377.33	0.117
377.55	0.137
377.77	0.112
377.98	0.167
378.20	0.185
378.42	0.192
378.63	0.190
378.85	0.185
379.07	0.198
379.28	0.185
379.50	0.190
379.71	0.201
379.93	0.209
380.15	0.213
380.36	0.199
380.58	0.209
380.80	0.203
381.01	0.224
381.23	0.238
381.44	0.230
381.66	0.242
381.88	0.220
382.09	0.218
382.31	0.176
382.53	0.162
382.74	0.174
382.96	0.184
383.17	0.169
383.39	0.160
383.61	0.173
383.82	0.174
384.04	0.157
384.25	0.172
384.47	0.169
384.69	0.194
384.90	0.190
385.12	0.171
385.33	0.158
385.55	0.159
385.77	0.163
385.98	0.142
386.20	0.127
386.41	0.155
386.63	0.150
386.85	0.154
387.06	0.148
387.28	0.185
387.49	0.212
387.71	0.222
387.93	0.268
388.14	0.264
388.36	0.301
388.57	0.342
388.79	0.340
389.01	0.361
389.22	0.370
389.44	0.397
389.65	0.393
389.87	0.389
390.08	0.405
390.30	0.382
390.52	0.404
390.73	0.428
390.95	0.416
391.16	0.410
391.38	0.438
391.59	0.434
391.81	0.421
392.03	0.447
392.24	0.447
392.46	0.407
392.67	0.437
392.89	0.405
393.10	0.395
393.32	0.409
393.53	0.422
393.75	0.354
393.97	0.368
394.18	0.397
394.40	0.399
394.61	0.405
394.83	0.433
395.04	0.425
395.26	0.446
395.47	0.427
395.69	0.416
395.91	0.405
396.12	0.436
396.34	0.438
396.55	0.400
396.77	0.373
396.98	0.372
397.20	0.381
397.41	0.394
397.63	0.416
397.84	0.415
398.06	0.430
398.27	0.439
398.49	0.447
398.71	0.454
398.92	0.496
399.14	0.498
399.35	0.526
399.57	0.514
399.78	0.504
400.00	0.477
400.21	0.460
400.43	0.475
400.64	0.451
400.86	0.462
401.07	0.447
401.29	0.413
401.50	0.432
401.72	0.415
401.93	0.422
402.15	0.415
402.36	0.453
402.58	0.489
402.79	0.460
403.01	0.482
403.22	0.490
403.44	0.538
403.65	0.555
403.87	0.532
404.08	0.522
404.30	0.534
404.51	0.541
404.73	0.523
404.94	0.535
405.16	0.572
405.37	0.562
405.59	0.560
405.80	0.535
406.02	0.551
406.23	0.568
406.45	0.575
406.66	0.555
406.88	0.561
407.09	0.570
407.31	0.563
407.52	0.561
407.74	0.561
407.95	0.587
408.17	0.585
408.38	0.619
408.60	0.614
408.81	0.619
409.03	0.626
409.24	0.632
409.45	0.627
409.67	0.617
409.88	0.610
410.10	0.643
410.31	0.612
410.53	0.604
410.74	0.593
410.96	0.603
411.17	0.609
411.39	0.593
411.60	0.603
411.82	0.592
412.03	0.612
412.24	0.614
412.46	0.621
412.67	0.628
412.89	0.651
413.10	0.662
413.32	0.655
413.53	0.678
413.75	0.718
413.96	0.705
414.17	0.749
414.39	0.726
414.60	0.735
414.82	0.737
415.03	0.711
415.25	0.689
415.46	0.666
415.68	0.674
415.89	0.667
416.10	0.686
416.32	0.695
416.53	0.666
416.75	0.696
416.96	0.670
417.18	0.689
417.39	0.711
417.60	0.727
417.82	0.737
418.03	0.715
418.25	0.733
418.46	0.704
418.67	0.707
418.89	0.720
419.10	0.723
419.32	0.743
419.53	0.736
419.75	0.745
419.96	0.749
420.17	0.709
420.39	0.720
420.60	0.721
420.82	0.746
421.03	0.746
421.24	0.730
421.46	0.708
421.67	0.705
421.89	0.696
422.10	0.691
422.31	0.675
422.53	0.707
422.74	0.738
422.96	0.741
423.17	0.716
423.38	0.749
423.60	0.757
423.81	0.770
424.03	0.783
424.24	0.789
424.45	0.814
424.67	0.838
424.88	0.852
425.09	0.833
425.31	0.820
425.52	0.840
425.74	0.822
425.95	0.841
426.16	0.855
426.38	0.887
426.59	0.902
426.80	0.904
427.02	0.931
427.23	0.914
427.45	0.925
427.66	0.915
427.87	0.889
428.09	0.887
428.30	0.877
428.51	0.875
428.73	0.866
428.94	0.836
429.15	0.810
429.37	0.789
429.58	0.813
429.79	0.814
430.01	0.840
430.22	0.884
430.44	0.885
430.65	0.895
430.86	0.913
431.08	0.918
431.29	0.939
431.50	0.967
431.72	0.995
431.93	0.965
432.14	0.977
432.36	0.972
432.57	0.938
432.78	0.946
433.00	0.959
433.21	0.964
433.42	0.938
433.64	0.951
433.85	0.953
434.06	0.970
434.28	1.010
434.49	1.025
434.70	1.013
434.92	1.045
435.13	1.066
435.34	1.077
435.56	1.023
435.77	1.038
435.98	1.062
436.20	1.069
436.41	1.024
436.62	0.978
436.83	0.984
437.05	0.996
437.26	0.989
437.47	0.970
437.69	0.974
437.90	0.988
438.11	0.987
438.33	0.984
438.54	0.986
438.75	0.999
438.97	1.015
439.18	0.978
439.39	0.998
439.60	1.002
439.82	1.010
440.03	0.991
440.24	0.996
440.46	1.010
440.67	0.992
440.88	0.983
441.10	0.992
441.31	1.003
441.52	1.022
441.73	1.004
441.95	1.004
442.16	1.003
442.37	1.028
442.58	1.063
442.80	1.076
443.01	1.090
443.22	1.092
443.44	1.085
443.65	1.083
443.86	1.117
444.07	1.130
444.29	1.155
444.50	1.145
444.71	1.131
444.92	1.097
445.14	1.101
445.35	1.117
445.56	1.124
445.78	1.127
445.99	1.150
446.20	1.110
446.41	1.115
446.63	1.110
446.84	1.141
447.05	1.126
447.26	1.152
447.48	1.123
447.69	1.128
447.90	1.130
448.11	1.130
448.33	1.127
448.54	1.148
448.75	1.126
448.96	1.131
449.18	1.115
449.39	1.132
449.60	1.115
449.81	1.113
450.03	1.080
450.24	1.079
450.45	1.083
450.66	1.074
450.87	1.072
451.09	1.080
451.30	1.083
451.51	1.082
451.72	1.068
451.94	1.074
452.15	1.092
452.36	1.110
452.57	1.126
452.78	1.117
453.00	1.109
453.21	1.104
453.42	1.098
453.63	1.074
453.85	1.077
454.06	1.096
454.27	1.105
454.48	1.125
454.69	1.138
454.91	1.162
455.12	1.184
455.33	1.210
455.54	1.241
455.75	1.267
455.97	1.280
456.18	1.288
456.39	1.257
456.60	1.252
456.81	1.264
457.03	1.269
457.24	1.244
457.45	1.243
457.66	1.226
457.87	1.205
458.09	1.216
458.30	1.220
458.51	1.231
458.72	1.265
458.93	1.263
459.15	1.258
459.36	1.244
459.57	1.225
459.78	1.212
459.99	1.243
460.20	1.231
460.42	1.197
460.63	1.217
460.84	1.215
461.05	1.192
461.26	1.202
461.47	1.182
461.69	1.191
461.90	1.222
462.11	1.243
462.32	1.245
462.53	1.260
462.74	1.296
462.96	1.301
463.17	1.284
463.38	1.335
463.59	1.322
463.80	1.339
464.01	1.350
464.23	1.311
464.44	1.294
464.65	1.290
464.86	1.271
465.07	1.253
465.28	1.228
465.49	1.245
465.71	1.233
465.92	1.239
466.13	1.225
466.34	1.225
466.55	1.253
466.76	1.269
466.97	1.274
467.19	1.292
467.40	1.285
467.61	1.302
467.82	1.308
468.03	1.298
468.24	1.287
468.45	1.282
468.66	1.294
468.88	1.283
469.09	1.275
469.30	1.255
469.51	1.272
469.72	1.287
469.93	1.295
470.14	1.297
470.35	1.307
470.57	1.315
470.78	1.336
470.99	1.312
471.20	1.297
471.41	1.297
471.62	1.308
471.83	1.288
472.04	1.285
472.25	1.292
472.47	1.272
472.68	1.268
472.89	1.271
473.10	1.265
473.31	1.273
473.52	1.304
473.73	1.306
473.94	1.312
474.15	1.348
474.36	1.349
474.57	1.353
474.79	1.369
475.00	1.395
475.21	1.414
475.42	1.414
475.63	1.437
475.84	1.421
476.05	1.423
476.26	1.424
476.47	1.403
476.68	1.421
476.89	1.399
477.10	1.408
477.32	1.383
477.53	1.388
477.74	1.397
477.95	1.388
478.16	1.390
478.37	1.405
478.58	1.409
478.79	1.399
479.00	1.398
479.21	1.404
479.42	1.401
479.63	1.401
479.84	1.402
480.05	1.413
480.26	1.411
480.47	1.413
480.69	1.403
480.90	1.402
481.11	1.418
481.32	1.414
481.53	1.402
481.74	1.389
481.95	1.390
482.16	1.372
482.37	1.355
482.58	1.354
482.79	1.358
483.00	1.352
483.21	1.338
483.42	1.320
483.63	1.309
483.84	1.317
484.05	1.332
484.26	1.336
484.47	1.340
484.68	1.337
484.89	1.331
485.10	1.321
485.31	1.321
485.52	1.330
485.73	1.338
485.94	1.346
486.15	1.341
486.37	1.330
486.58	1.332
486.79	1.331
487.00	1.339
487.21	1.342
487.42	1.339
487.63	1.337
487.84	1.331
488.05	1.332
488.26	1.328
488.47	1.326
488.68	1.325
488.89	1.320
489.10	1.321
489.31	1.304
489.52	1.296
489.73	1.297
489.94	1.305
490.15	1.313
490.36	1.311
490.57	1.315
490.78	1.315
490.99	1.311
491.20	1.317
491.41	1.314
491.62	1.320
491.83	1.321
492.04	1.317
492.25	1.307
492.45	1.301
492.66	1.296
492.87	1.289
493.08	1.289
493.29	1.284
493.50	1.272
493.71	1.263
493.92	1.265
494.13	1.265
494.34	1.267
494.55	1.272
494.76	1.257
494.97	1.250
495.18	1.255
495.39	1.255
495.60	1.256
495.81	1.251
496.02	1.251
496.23	1.253
496.44	1.251
496.65	1.250
496.86	1.242
497.07	1.246
497.28	1.244
497.49	1.238
497.70	1.233
497.91	1.231
498.12	1.238
498.32	1.240
498.53	1.233
498.74	1.227
498.95	1.221
499.16	1.217
499.37	1.216
499.58	1.222
499.79	1.221
500.00	1.221
500.21	1.215
500.42	1.210
500.63	1.203
500.84	1.204
501.05	1.205
501.26	1.202
501.46	1.199
501.67	1.198
501.88	1.195
502.09	1.186
502.30	1.181
502.51	1.185
502.72	1.185
502.93	1.184
503.14	1.178
503.35	1.173
503.56	1.173
503.77	1.173
503.97	1.173
504.18	1.167
504.39	1.172
504.60	1.169
504.81	1.165
505.02	1.164
505.23	1.166
505.44	1.165
505.65	1.169
505.86	1.169
506.07	1.164
506.27	1.156
506.48	1.160
506.69	1.157
506.90	1.158
507.11	1.160
507.32	1.156
507.53	1.153
507.74	1.150
507.95	1.145
508.15	1.143
508.36	1.148
508.57	1.150
508.78	1.141
508.99	1.140
509.20	1.135
509.41	1.131
509.62	1.130
509.82	1.132
510.03	1.133
510.24	1.134
510.45	1.133
510.66	1.131
510.87	1.133
511.08	1.142
511.29	1.142
511.49	1.142
511.70	1.139
511.91	1.137
512.12	1.134
512.33	1.130
512.54	1.129
512.75	1.131
512.95	1.130
513.16	1.126
513.37	1.121
513.58	1.117
513.79	1.117
514.00	1.117
514.20	1.119
514.41	1.119
514.62	1.120
514.83	1.119
515.04	1.117
515.25	1.112
515.46	1.112
515.66	1.111
515.87	1.113
516.08	1.113
516.29	1.114
516.50	1.112
516.71	1.112
516.91	1.113
517.12	1.112
517.33	1.114
517.54	1.117
517.75	1.118
517.95	1.121
518.16	1.122
518.37	1.121
518.58	1.125
518.79	1.128
519.00	1.128
519.20	1.128
519.41	1.126
519.62	1.127
519.83	1.130
520.04	1.127
520.24	1.129
520.45	1.127
520.66	1.128
520.87	1.125
521.08	1.122
521.28	1.122
521.49	1.123
521.70	1.127
521.91	1.128
522.12	1.132
522.32	1.137
522.53	1.139
522.74	1.142
522.95	1.143
523.16	1.146
523.36	1.148
523.57	1.151
523.78	1.152
523.99	1.152
524.20	1.153
524.40	1.151
524.61	1.150
524.82	1.149
525.03	1.151
525.23	1.156
525.44	1.160
525.65	1.165
525.86	1.166
526.06	1.166
526.27	1.170
526.48	1.170
526.69	1.172
526.90	1.178
527.10	1.181
527.31	1.185
527.52	1.185
527.73	1.185
527.93	1.185
528.14	1.188
528.35	1.190
528.56	1.190
528.76	1.193
528.97	1.195
529.18	1.196
529.39	1.198
529.59	1.202
529.80	1.202
530.01	1.202
530.22	1.203
530.42	1.203
530.63	1.206
530.84	1.209
531.05	1.210
531.25	1.210
531.46	1.210
531.67	1.213
531.88	1.211
532.08	1.214
532.29	1.220
532.50	1.226
532.70	1.229
532.91	1.234
533.12	1.232
533.33	1.233
533.53	1.238
533.74	1.239
533.95	1.239
534.15	1.240
534.36	1.242
534.57	1.239
534.78	1.238
534.98	1.241
535.19	1.240
535.40	1.246
535.60	1.250
535.81	1.252
536.02	1.252
536.23	1.256
536.43	1.262
536.64	1.259
536.85	1.261
537.05	1.262
537.26	1.261
537.47	1.260
537.67	1.259
537.88	1.259
538.09	1.261
538.30	1.265
538.50	1.263
538.71	1.256
538.92	1.259
539.12	1.262
539.33	1.261
539.54	1.261
539.74	1.262
539.95	1.262
540.16	1.260
540.36	1.256
540.57	1.255
540.78	1.258
540.98	1.262
541.19	1.262
541.40	1.258
541.60	1.258
541.81	1.258
542.02	1.256
542.22	1.256
542.43	1.258
542.64	1.257
542.84	1.255
543.05	1.253
543.26	1.249
543.46	1.249
543.67	1.250
543.88	1.250
544.08	1.252
544.29	1.256
544.50	1.258
544.70	1.256
544.91	1.257
545.12	1.256
545.32	1.251
545.53	1.252
545.74	1.248
545.94	1.248
546.15	1.244
546.35	1.241
546.56	1.236
546.77	1.233
546.97	1.229
547.18	1.226
547.39	1.222
547.59	1.222
547.80	1.219
548.01	1.220
548.21	1.219
548.42	1.219
548.62	1.219
548.83	1.221
549.04	1.218
549.24	1.217
549.45	1.216
549.65	1.218
549.86	1.219
550.07	1.220
550.27	1.219
550.48	1.216
550.69	1.214
550.89	1.210
551.10	1.207
551.30	1.205
551.51	1.205
551.72	1.204
551.92	1.202
552.13	1.201
552.33	1.199
552.54	1.194
552.75	1.192
552.95	1.190
553.16	1.189
553.36	1.184
553.57	1.180
553.78	1.175
553.98	1.172
554.19	1.169
554.39	1.165
554.60	1.162
554.80	1.161
555.01	1.158
555.22	1.154
555.42	1.153
555.63	1.150
555.83	1.150
556.04	1.148
556.25	1.144
556.45	1.139
556.66	1.136
556.86	1.133
557.07	1.128
557.27	1.125
557.48	1.122
557.68	1.117
557.89	1.114
558.10	1.111
558.30	1.108
558.51	1.105
558.71	1.103
558.92	1.101
559.12	1.098
559.33	1.097
559.54	1.094
559.74	1.090
559.95	1.087
560.15	1.084
560.36	1.080
560.56	1.077
560.77	1.076
560.97	1.071
561.18	1.067
561.38	1.064
561.59	1.061
561.79	1.057
562.00	1.054
562.21	1.051
562.41	1.048
562.62	1.044
562.82	1.040
563.03	1.036
563.23	1.031
563.44	1.026
563.64	1.020
563.85	1.017
564.05	1.012
564.26	1.008
564.46	1.003
564.67	0.998
564.87	0.995
565.08	0.991
565.28	0.986
565.49	0.982
565.69	0.977
565.90	0.973
566.10	0.968
566.31	0.963
566.51	0.958
566.72	0.953
566.92	0.948
567.13	0.942
567.33	0.936
567.54	0.931
567.74	0.925
567.95	0.919
568.15	0.914
568.36	0.909
568.56	0.904
568.77	0.900
568.97	0.895
569.18	0.891
569.38	0.885
569.59	0.879
569.79	0.873
570.00	0.868
570.20	0.863
570.41	0.859
570.61	0.852
570.82	0.846
571.02	0.838
571.23	0.832
571.43	0.825
571.64	0.818
571.84	0.813
572.05	0.808
572.25	0.802
572.45	0.795
572.66	0.788
572.86	0.782
573.07	0.776
573.27	0.770
573.48	0.763
573.68	0.757
573.89	0.751
574.09	0.745
574.30	0.738
574.50	0.731
574.70	0.724
574.91	0.718
575.11	0.712
575.32	0.705
575.52	0.698
575.73	0.693
575.93	0.685
576.14	0.680
576.34	0.673
576.54	0.666
576.75	0.660
576.95	0.654
577.16	0.647
577.36	0.641
577.57	0.635
577.77	0.627
577.97	0.621
578.18	0.615
578.38	0.606
578.59	0.600
578.79	0.593
579.00	0.587
579.20	0.580
579.40	0.573
579.61	0.567
579.81	0.561
580.02	0.555
580.22	0.548
580.42	0.541
580.63	0.536
580.83	0.529
581.04	0.523
581.24	0.517
581.45	0.511
581.65	0.505
581.85	0.499
582.06	0.493
582.26	0.486
582.47	0.481
582.67	0.475
582.87	0.469
583.08	0.464
583.28	0.457
583.48	0.452
583.69	0.446
583.89	0.440
584.10	0.434
584.30	0.429
584.50	0.423
584.71	0.418
584.91	0.412
585.12	0.407
585.32	0.402
585.52	0.397
585.73	0.391
585.93	0.386
586.13	0.380
586.34	0.375
586.54	0.371
586.75	0.366
586.95	0.361
587.15	0.356
587.36	0.351
587.56	0.346
587.76	0.341
587.97	0.337
588.17	0.332
588.37	0.327
588.58	0.323
588.78	0.319
588.98	0.315
589.19	0.310
589.39	0.306
589.60	0.302
589.80	0.298
590.00	0.294
590.21	0.290
590.41	0.285
590.61	0.281
590.82	0.277
591.02	0.273
591.22	0.269
591.43	0.266
591.63	0.261
591.83	0.258
592.04	0.254
592.24	0.251
592.44	0.248
592.65	0.244
592.85	0.241
593.05	0.238
593.26	0.234
593.46	0.231
593.66	0.228
593.86	0.225
594.07	0.221
594.27	0.218
594.47	0.216
594.68	0.212
594.88	0.210
595.08	0.207
595.29	0.204
595.49	0.201
595.69	0.198
595.90	0.195
596.10	0.193
596.30	0.190
596.50	0.188
596.71	0.184
596.91	0.182
597.11	0.179
597.32	0.177
597.52	0.174
597.72	0.171
597.93	0.170
598.13	0.168
598.33	0.166
598.53	0.163
598.74	0.161
598.94	0.159
599.14	0.157
599.35	0.155
599.55	0.153
599.75	0.151
599.95	0.149
600.16	0.146
600.36	0.144
600.56	0.142
600.76	0.140
600.97	0.139
601.17	0.137
601.37	0.135
601.58	0.133
601.78	0.131
601.98	0.129
602.18	0.127
602.39	0.126
602.59	0.124
602.79	0.122
602.99	0.121
603.20	0.119
603.40	0.117
603.60	0.115
603.80	0.114
604.01	0.112
604.21	0.110
604.41	0.109
604.61	0.108
604.82	0.106
605.02	0.105
605.22	0.104
605.42	0.103
605.62	0.102
605.83	0.101
606.03	0.099
606.23	0.098
606.43	0.097
606.64	0.096
606.84	0.095
607.04	0.094
607.24	0.092
607.45	0.091
607.65	0.090
607.85	0.088
608.05	0.087
608.25	0.086
608.46	0.084
608.66	0.084
608.86	0.082
609.06	0.081
609.26	0.080
609.47	0.079
609.67	0.078
609.87	0.077
610.07	0.076
610.28	0.075
610.48	0.075
610.68	0.074
610.88	0.073
611.08	0.072
611.29	0.071
611.49	0.070
611.69	0.069
611.89	0.067
612.09	0.066
612.29	0.066
612.50	0.065
612.70	0.064
612.90	0.064
613.10	0.063
613.30	0.062
613.51	0.061
613.71	0.060
613.91	0.060
614.11	0.059
614.31	0.058
614.51	0.057
614.72	0.057
614.92	0.056
615.12	0.055
615.32	0.054
615.52	0.054
615.72	0.053
615.93	0.052
616.13	0.051
616.33	0.051
616.53	0.051
616.73	0.051
616.93	0.050
617.14	0.049
617.34	0.049
617.54	0.048
617.74	0.047
617.94	0.047
618.14	0.047
618.34	0.047
618.55	0.046
618.75	0.045
618.95	0.045
619.15	0.045
619.35	0.045
619.55	0.044
619.75	0.044
619.96	0.043
620.16	0.043
620.36	0.042
620.56	0.042
620.76	0.041
620.96	0.041
621.16	0.040
621.36	0.040
621.57	0.039
621.77	0.039
621.97	0.038
622.17	0.038
622.37	0.037
622.57	0.037
622.77	0.037
622.97	0.037
623.18	0.036
623.38	0.036
623.58	0.036
623.78	0.035
623.98	0.035
624.18	0.035
624.38	0.035
624.58	0.035
624.78	0.035
624.98	0.035
625.19	0.034
625.39	0.034
625.59	0.034
625.79	0.034
625.99	0.034
626.19	0.034
626.39	0.034
626.59	0.033
626.79	0.033
626.99	0.032
627.19	0.032
627.40	0.032
627.60	0.031
627.80	0.031
628.00	0.030
628.20	0.030
628.40	0.030
628.60	0.030
628.80	0.030
629.00	0.029
629.20	0.029
629.40	0.029
629.60	0.029
629.80	0.029
630.00	0.029
630.20	0.029
630.41	0.029
630.61	0.028
630.81	0.028
631.01	0.028
631.21	0.028
631.41	0.028
631.61	0.027
631.81	0.027
632.01	0.027
632.21	0.027
632.41	0.027
632.61	0.027
632.81	0.027
633.01	0.027
633.21	0.027
633.41	0.027
633.61	0.027
633.81	0.026
634.01	0.026
634.21	0.026
634.41	0.026
634.61	0.026
634.81	0.025
635.01	0.026
635.22	0.026
635.42	0.026
635.62	0.026
635.82	0.026
636.02	0.026
636.22	0.026
636.42	0.026
636.62	0.025
636.82	0.025
637.02	0.026
637.22	0.025
637.42	0.025
637.62	0.025
637.82	0.025
638.02	0.025
638.22	0.025
638.42	0.025
638.62	0.025
638.82	0.024
639.02	0.024
639.22	0.024
639.42	0.024
639.62	0.024
639.82	0.024
640.02	0.024
640.22	0.024
640.42	0.024
640.62	0.024
640.82	0.024
641.02	0.024
641.22	0.025
641.42	0.025
641.61	0.024
641.81	0.024
642.01	0.024
642.21	0.024
642.41	0.024
642.61	0.024
642.81	0.024
643.01	0.024
643.21	0.024
643.41	0.023
643.61	0.023
643.81	0.024
644.01	0.023
644.21	0.023
644.41	0.023
644.61	0.023
644.81	0.023
645.01	0.023
645.21	0.023
645.41	0.023
645.61	0.023
645.81	0.023
646.01	0.023
646.21	0.023
646.40	0.024
646.60	0.024
646.80	0.024
647.00	0.024
647.20	0.024
647.40	0.024
647.60	0.024
647.80	0.024
648.00	0.024
648.20	0.024
648.40	0.024
648.60	0.023
648.80	0.023
649.00	0.023
649.20	0.023
649.39	0.023
649.59	0.023
649.79	0.023
649.99	0.023
650.19	0.023
650.39	0.023
650.59	0.023
650.79	0.023
650.99	0.023
651.19	0.023
651.39	0.023
651.58	0.023
651.78	0.023
651.98	0.023
652.18	0.023
652.38	0.023
652.58	0.023
652.78	0.023
652.98	0.023
653.18	0.023
653.38	0.023
653.57	0.023
653.77	0.023
653.97	0.023
654.17	0.023
654.37	0.023
654.57	0.023
654.77	0.023
654.97	0.023
655.16	0.022
655.36	0.022
655.56	0.022
655.76	0.022
655.96	0.022
656.16	0.021
656.36	0.021
656.56	0.021
656.75	0.021
656.95	0.021
657.15	0.021
657.35	0.021
657.55	0.021
657.75	0.021
657.95	0.021
658.14	0.021
658.34	0.021
658.54	0.021
658.74	0.021
658.94	0.022
659.14	0.022
659.34	0.022
659.53	0.022
659.73	0.022
659.93	0.022
660.13	0.022
660.33	0.022
660.53	0.022
660.72	0.022
660.92	0.022
661.12	0.022
661.32	0.021
661.52	0.022
661.72	0.021
661.91	0.021
662.11	0.021
662.31	0.021
662.51	0.021
662.71	0.021
662.90	0.021
663.10	0.021
663.30	0.021
663.50	0.021
663.70	0.021
663.90	0.021
664.09	0.021
664.29	0.021
664.49	0.021
664.69	0.021
664.89	0.021
665.08	0.020
665.28	0.021
665.48	0.021
665.68	0.021
665.88	0.021
666.07	0.021
666.27	0.021
666.47	0.021
666.67	0.021
666.87	0.021
667.06	0.021
667.26	0.021
667.46	0.021
667.66	0.021
667.85	0.021
668.05	0.021
668.25	0.021
668.45	0.021
668.65	0.021
668.84	0.021
669.04	0.021
669.24	0.021
669.44	0.021
669.63	0.021
669.83	0.021
670.03	0.021
670.23	0.020
670.42	0.020
670.62	0.020
670.82	0.020
671.02	0.020
671.22	0.020
671.41	0.020
671.61	0.020
671.81	0.020
672.01	0.020
672.20	0.020
672.40	0.020
672.60	0.020
672.80	0.020
672.99	0.020
673.19	0.021
673.39	0.021
673.58	0.021
673.78	0.021
673.98	0.021
674.18	0.021
674.37	0.021
674.57	0.021
674.77	0.020
674.97	0.020
675.16	0.020
675.36	0.020
675.56	0.020
675.75	0.020
675.95	0.020
676.15	0.020
676.35	0.020
676.54	0.020
676.74	0.020
676.94	0.020
677.13	0.020
677.33	0.020
677.53	0.020
677.73	0.021
677.92	0.021
678.12	0.020
678.32	0.020
678.51	0.020
678.71	0.020
678.91	0.021
679.11	0.021
679.30	0.021
679.50	0.021
679.70	0.020
679.89	0.020
680.09	0.020
680.29	0.020
680.48	0.020
680.68	0.020
680.88	0.020
681.07	0.020
681.27	0.020
681.47	0.020
681.66	0.020
681.86	0.020
682.06	0.021
682.25	0.021
682.45	0.021
682.65	0.020
682.84	0.020
683.04	0.021
683.24	0.021
683.43	0.020
683.63	0.020
683.83	0.020
684.02	0.020
684.22	0.020
684.42	0.020
684.61	0.020
684.81	0.020
685.01	0.020
685.20	0.020
685.40	0.020
685.60	0.020
685.79	0.020
685.99	0.020
686.19	0.020
686.38	0.020
686.58	0.020
686.77	0.020
686.97	0.020
687.17	0.020
687.36	0.020
687.56	0.020
687.76	0.020
687.95	0.020
688.15	0.020
688.34	0.020
688.54	0.020
688.74	0.020
688.93	0.020
689.13	0.020
689.33	0.020
689.52	0.020
689.72	0.020
689.91	0.020
690.11	0.020
690.31	0.020
690.50	0.020
690.70	0.020
690.89	0.020
691.09	0.020
691.29	0.020
691.48	0.020
691.68	0.020
691.87	0.020
692.07	0.020
692.27	0.020
692.46	0.020
692.66	0.020
692.85	0.020
693.05	0.020
693.25	0.020
693.44	0.020
693.64	0.020
693.83	0.020
694.03	0.020
694.22	0.020
694.42	0.020
694.62	0.020
694.81	0.020
695.01	0.020
695.20	0.020
695.40	0.020
695.59	0.020
695.79	0.020
695.99	0.020
696.18	0.020
696.38	0.019
696.57	0.020
696.77	0.020
696.96	0.020
697.16	0.020
697.36	0.020
697.55	0.020
697.75	0.020
697.94	0.020
698.14	0.020
698.33	0.020
698.53	0.020
698.72	0.020
698.92	0.020
699.11	0.020
699.31	0.020
699.51	0.020
699.70	0.020
699.90	0.020
700.09	0.020
700.29	0.020
700.48	0.020
700.68	0.020
700.87	0.020
701.07	0.020
701.26	0.020
701.46	0.020
701.65	0.020
701.85	0.020
702.04	0.019
702.24	0.019
702.43	0.019
702.63	0.019
702.82	0.019
703.02	0.019
703.21	0.019
703.41	0.019
703.60	0.019
703.80	0.019
703.99	0.019
704.19	0.019
704.38	0.019
704.58	0.019
704.77	0.019
704.97	0.018
705.16	0.018
705.36	0.019
705.55	0.019
705.75	0.019
705.94	0.019
706.14	0.018
706.33	0.018
706.53	0.018
706.72	0.018
706.92	0.018
707.11	0.018
707.31	0.018
707.50	0.018
707.70	0.018
707.89	0.019
708.09	0.019
708.28	0.019
708.48	0.019
708.67	0.019
708.86	0.019
709.06	0.019
709.25	0.019
709.45	0.019
709.64	0.019
709.84	0.019
710.03	0.018
710.23	0.018
710.42	0.018
710.62	0.018
710.81	0.018
711.00	0.018
711.20	0.019
711.39	0.019
711.59	0.018
711.78	0.018
711.98	0.018
712.17	0.018
712.37	0.019
712.56	0.018
712.75	0.018
712.95	0.018
713.14	0.018
713.34	0.018
713.53	0.018
713.73	0.018
713.92	0.018
714.11	0.018
714.31	0.018
714.50	0.018
714.70	0.017
714.89	0.017
715.08	0.017
715.28	0.017
715.47	0.017
715.67	0.018
715.86	0.018
716.06	0.018
716.25	0.018
716.44	0.018
716.64	0.017
716.83	0.017
717.03	0.017
717.22	0.017
717.41	0.017
717.61	0.017
717.80	0.016
717.99	0.016
718.19	0.016
718.38	0.016
718.58	0.016
718.77	0.016
718.96	0.016
719.16	0.017
719.35	0.017
719.55	0.017
719.74	0.017
719.93	0.017
720.13	0.018
720.32	0.017
720.51	0.017
720.71	0.017
720.90	0.017
721.10	0.017
721.29	0.016
721.48	0.016
721.68	0.016
721.87	0.016
722.06	0.016
722.26	0.015
722.45	0.015
722.64	0.015
722.84	0.015
723.03	0.015
723.22	0.015
723.42	0.016
723.61	0.015
723.80	0.015
724.00	0.015
724.19	0.015
724.38	0.015
724.58	0.016
724.77	0.016
724.96	0.016
725.16	0.016
725.35	0.015
725.54	0.015
725.74	0.015
725.93	0.015
726.12	0.014
726.32	0.014
726.51	0.014
726.70	0.013
726.90	0.013
727.09	0.013
727.28	0.013
727.48	0.013
727.67	0.014
727.86	0.013
728.06	0.014
728.25	0.014
728.44	0.014
728.64	0.014
728.83	0.014
729.02	0.014
729.21	0.014
729.41	0.014
729.60	0.014
729.79	0.013
729.99	0.013
730.18	0.013
730.37	0.012
730.56	0.012
730.76	0.012
730.95	0.012
731.14	0.012
731.34	0.012
731.53	0.012
731.72	0.012
731.91	0.012
732.11	0.012
732.30	0.012
732.49	0.012
732.69	0.012
732.88	0.012
733.07	0.012
733.26	0.012
733.46	0.012
733.65	0.012
733.84	0.011
734.03	0.011
734.23	0.011
734.42	0.011
734.61	0.011
734.80	0.011
735.00	0.011
735.19	0.011
735.38	0.011
735.57	0.011
735.77	0.011
735.96	0.011
736.15	0.011
736.34	0.011
736.54	0.011
736.73	0.011
736.92	0.010
737.11	0.010
737.31	0.010
737.50	0.010
737.69	0.011
737.88	0.011
738.07	0.011
738.27	0.011
738.46	0.011
738.65	0.011
738.84	0.011
739.04	0.011
739.23	0.011
739.42	0.011
739.61	0.011
739.80	0.011
740.00	0.010
740.19	0.010
740.38	0.010
740.57	0.010
740.76	0.010
740.96	0.010
741.15	0.010
741.34	0.010
741.53	0.011
741.72	0.010
741.92	0.010
742.11	0.011
742.30	0.011
742.49	0.011
742.68	0.011
742.88	0.011
743.07	0.011
743.26	0.011
743.45	0.011
743.64	0.011
743.84	0.011
744.03	0.011
744.22	0.011
744.41	0.011
744.60	0.012
744.79	0.012
744.99	0.012
745.18	0.012
745.37	0.012
745.56	0.012
745.75	0.012
745.94	0.012
746.14	0.011
746.33	0.011
746.52	0.011
746.71	0.011
746.90	0.011
747.09	0.011
747.28	0.010
747.48	0.011
747.67	0.011
747.86	0.011
748.05	0.011
748.24	0.011
748.43	0.011
748.62	0.011
748.82	0.012
749.01	0.012
749.20	0.012
749.39	0.012
749.58	0.012
749.77	0.012
749.96	0.012
750.16	0.012
750.35	0.012
750.54	0.012
750.73	0.013
750.92	0.013
751.11	0.012
751.30	0.013
751.49	0.013
751.68	0.013
751.88	0.013
752.07	0.013
752.26	0.013
752.45	0.013
752.64	0.012
752.83	0.012
753.02	0.012
753.21	0.013
753.40	0.013
753.60	0.013
753.79	0.013
753.98	0.013
754.17	0.013
754.36	0.013
754.55	0.013
754.74	0.013
754.93	0.013
755.12	0.013
755.31	0.013
755.50	0.013
755.70	0.013
755.89	0.013
756.08	0.013
756.27	0.014
756.46	0.014
756.65	0.014
756.84	0.014
757.03	0.015
757.22	0.014
757.41	0.015
757.60	0.015
757.79	0.015
757.98	0.015
758.17	0.015
758.36	0.014
758.56	0.015
758.75	0.015
758.94	0.015
759.13	0.015
759.32	0.015
759.51	0.014
759.70	0.014
759.89	0.014
760.08	0.014
760.27	0.014
760.46	0.014
760.65	0.014
760.84	0.014
761.03	0.014
761.22	0.014
761.41	0.014
761.60	0.014
761.79	0.015
761.98	0.015
762.17	0.015
762.36	0.015
762.55	0.015
762.74	0.015
762.93	0.015
763.12	0.015
763.31	0.015
763.50	0.015
763.69	0.015
763.88	0.015
764.07	0.015
764.26	0.014
764.45	0.014
764.64	0.014
764.83	0.014
765.02	0.013
765.21	0.013
765.40	0.013
765.59	0.013
765.78	0.012
765.97	0.012
766.16	0.012
766.35	0.012
766.54	0.012
766.73	0.013
766.92	0.012
767.11	0.012
767.30	0.013
767.49	0.013
767.68	0.012
767.87	0.012
768.06	0.012
768.25	0.012
768.44	0.012
768.63	0.012
768.82	0.011
769.01	0.012
769.20	0.012
769.39	0.011
769.58	0.011
769.77	0.011
769.96	0.011
770.15	0.011
770.34	0.012
770.53	0.012
770.72	0.011
770.91	0.012
771.10	0.011
771.29	0.011
771.47	0.011
771.66	0.011
771.85	0.011
772.04	0.011
772.23	0.011
772.42	0.011
772.61	0.011
772.80	0.011
772.99	0.011
773.18	0.011
773.37	0.011
773.56	0.011
773.75	0.011
773.94	0.011
774.13	0.012
774.31	0.012
774.50	0.011
774.69	0.012
774.88	0.011
775.07	0.011
775.26	0.012
775.45	0.012
775.64	0.011
775.83	0.011
776.02	0.012
776.21	0.011
776.40	0.011
776.58	0.011
776.77	0.011
776.96	0.011
777.15	0.011
777.34	0.011
777.53	0.011
777.72	0.010
777.91	0.010
778.10	0.010
778.28	0.010
778.47	0.010
778.66	0.010
778.85	0.010
779.04	0.009
779.23	0.009
779.42	0.009
779.61	0.009
779.79	0.010
779.98	0.009
780.17	0.009
780.36	0.009
780.55	0.010
780.74	0.010
780.93	0.010
781.12	0.010
781.30	0.010
781.49	0.010
781.68	0.010
781.87	0.010
782.06	0.010
782.25	0.010
782.44	0.010
782.62	0.010
782.81	0.010
783.00	0.010
783.19	0.010
783.38	0.010
783.57	0.010
783.75	0.010
783.94	0.010
784.13	0.010
784.32	0.010
784.51	0.010
784.70	0.010
784.88	0.010
785.07	0.010
785.26	0.010
785.45	0.010
785.64	0.010
785.83	0.010
786.01	0.010
786.20	0.010
786.39	0.010
786.58	0.010
786.77	0.010
786.95	0.010
787.14	0.010
787.33	0.010
787.52	0.010
787.71	0.010
787.90	0.010
788.08	0.010
788.27	0.010
788.46	0.010
788.65	0.010
788.84	0.010
789.02	0.010
789.21	0.010
789.40	0.010
789.59	0.010
789.77	0.010
789.96	0.011
790.15	0.011
790.34	0.011
790.53	0.011
790.71	0.011
790.90	0.011
791.09	0.011
791.28	0.011
791.46	0.011
791.65	0.011
791.84	0.011
792.03	0.011
792.22	0.011
792.40	0.011
792.59	0.011
792.78	0.011
792.97	0.012
793.15	0.011
793.34	0.011
793.53	0.012
793.72	0.012
793.90	0.011
794.09	0.011
794.28	0.011
794.47	0.012
794.65	0.012
794.84	0.012
795.03	0.012
795.22	0.012
795.40	0.012
795.59	0.012
795.78	0.012
795.97	0.012
796.15	0.012
796.34	0.012
796.53	0.012
796.71	0.012
796.90	0.012
797.09	0.012
797.28	0.012
797.46	0.012
797.65	0.012
797.84	0.012
798.02	0.012
798.21	0.013
798.40	0.013
798.59	0.012
798.77	0.013
798.96	0.012
799.15	0.012
799.33	0.012
799.52	0.012
799.71	0.012
799.90	0.012
800.08	0.012
800.27	0.012
800.46	0.012
800.64	0.012
800.83	0.012
801.02	0.012
801.20	0.012
801.39	0.012
801.58	0.012
801.76	0.012
801.95	0.012
802.14	0.012
802.32	0.012
802.51	0.012
802.70	0.012
802.88	0.012
803.07	0.012
803.26	0.012
803.44	0.012
803.63	0.012
803.82	0.012
804.00	0.012
804.19	0.012
804.38	0.012
804.56	0.012
804.75	0.012
804.94	0.012
805.12	0.012
805.31	0.012
805.50	0.012
805.68	0.013
805.87	0.012
806.06	0.013
806.24	0.013
806.43	0.013
806.62	0.013
806.80	0.013
806.99	0.013
807.17	0.013
807.36	0.013
807.55	0.014
807.73	0.013
807.92	0.013
808.11	0.013
808.29	0.013
808.48	0.013
808.66	0.013
808.85	0.013
809.04	0.013
809.22	0.013
809.41	0.013
809.59	0.013
809.78	0.013
809.97	0.013
810.15	0.013
810.34	0.013
810.53	0.013
810.71	0.013
810.90	0.013
811.08	0.013
811.27	0.013
811.45	0.013
811.64	0.013
811.83	0.013
812.01	0.012
812.20	0.012
812.38	0.012
812.57	0.012
812.76	0.012
812.94	0.012
813.13	0.012
813.31	0.011
813.50	0.012
813.68	0.012
813.87	0.012
814.06	0.012
814.24	0.012
814.43	0.012
814.61	0.012
814.80	0.012
814.98	0.012
815.17	0.012
815.36	0.012
815.54	0.012
815.73	0.013
815.91	0.013
816.10	0.013
816.28	0.013
816.47	0.012
816.65	0.012
816.84	0.012
817.03	0.012
817.21	0.012
817.40	0.012
817.58	0.012
817.77	0.012
817.95	0.012
818.14	0.012
818.32	0.012
818.51	0.012
818.69	0.012
818.88	0.012
819.06	0.012
819.25	0.012
819.43	0.012
819.62	0.012
819.80	0.012
819.99	0.012
820.18	0.012
820.36	0.013
820.55	0.012
820.73	0.012
820.92	0.012
821.10	0.013
821.29	0.013
821.47	0.013
821.66	0.013
821.84	0.013
822.03	0.013
822.21	0.013
822.40	0.013
822.58	0.013
822.77	0.013
822.95	0.013
823.14	0.013
823.32	0.013
823.50	0.013
823.69	0.012
823.87	0.012
824.06	0.012
824.24	0.012
824.43	0.012
824.61	0.012
824.80	0.012
824.98	0.011
825.17	0.011
825.35	0.011
825.54	0.011
825.72	0.011
825.91	0.011
826.09	0.011
826.28	0.011
826.46	0.011
826.64	0.010
826.83	0.010
827.01	0.010
827.20	0.011
827.38	0.011
827.57	0.010
827.75	0.010
827.94	0.010
828.12	0.010
828.31	0.010
828.49	0.010
828.67	0.010
828.86	0.010
829.04	0.010
829.23	0.009
829.41	0.009
829.60	0.009
829.78	0.009
829.96	0.009
830.15	0.009
830.33	0.009
830.52	0.009
830.70	0.009
830.88	0.009
831.07	0.009
831.25	0.009
831.44	0.008
831.62	0.008
831.81	0.008
831.99	0.008
832.17	0.008
832.36	0.007
832.54	0.007
832.73	0.007
832.91	0.007
833.09	0.007
833.28	0.007
833.46	0.008
833.65	0.008
833.83	0.008
834.01	0.008
834.20	0.007
834.38	0.007
834.56	0.008
834.75	0.007
834.93	0.007
835.12	0.007
835.30	0.007
835.48	0.007
835.67	0.006
835.85	0.006
836.03	0.006
836.22	0.006
836.40	0.006
836.59	0.006
836.77	0.006
836.95	0.006
837.14	0.006
837.32	0.006
837.50	0.007
837.69	0.007
837.87	0.007
838.05	0.007
838.24	0.007
838.42	0.007
838.60	0.007
838.79	0.007
838.97	0.007
839.15	0.007
839.34	0.007
839.52	0.006
839.70	0.006
839.89	0.007
840.07	0.006
840.25	0.006
840.44	0.006
840.62	0.006
840.80	0.006
840.99	0.006
841.17	0.005
841.35	0.006
841.54	0.006
841.72	0.005
841.90	0.005
842.09	0.005
842.27	0.005
842.45	0.005
842.64	0.005
842.82	0.005
843.00	0.005
843.19	0.004
843.37	0.004
843.55	0.004
843.73	0.004
843.92	0.004
844.10	0.004
844.28	0.004
844.47	0.004
844.65	0.004
844.83	0.005
845.01	0.005
845.20	0.005
845.38	0.005
845.56	0.005
845.75	0.005
845.93	0.005
846.11	0.005
846.29	0.005
846.48	0.005
846.66	0.005
846.84	0.005
847.02	0.005
847.21	0.005
847.39	0.005
847.57	0.005
847.76	0.005
847.94	0.006
848.12	0.006
848.30	0.006
848.49	0.006
848.67	0.006
848.85	0.006
849.03	0.006
849.22	0.006
849.40	0.006
849.58	0.006
849.76	0.005
849.95	0.005
850.13	0.005
850.31	0.005
850.49	0.005
850.67	0.005
850.86	0.005
851.04	0.005
851.22	0.005
851.40	0.005
851.59	0.005
851.77	0.005
851.95	0.005
852.13	0.005
852.31	0.005
852.50	0.004
852.68	0.005
852.86	0.004
853.04	0.004
853.23	0.005
853.41	0.004
853.59	0.004
853.77	0.004
853.95	0.004
854.14	0.004
854.32	0.004
854.50	0.004
854.68	0.004
854.86	0.004
855.04	0.004
855.23	0.004
855.41	0.004
855.59	0.004
855.77	0.004
855.95	0.004
856.14	0.004
856.32	0.003
856.50	0.003
856.68	0.003
856.86	0.003
857.04	0.003
857.23	0.003
857.41	0.003
857.59	0.003
857.77	0.003
857.95	0.003
858.13	0.003
858.32	0.003
858.50	0.004
858.68	0.004
858.86	0.004
859.04	0.004
859.22	0.004
859.41	0.004
859.59	0.004
859.77	0.004
859.95	0.004
860.13	0.004
860.31	0.004
860.49	0.004
860.68	0.004
860.86	0.004
861.04	0.004
861.22	0.004
861.40	0.004
861.58	0.004
861.76	0.004
861.94	0.004
862.13	0.004
862.31	0.004
862.49	0.004
862.67	0.004
862.85	0.004
863.03	0.004
863.21	0.004
863.39	0.004
863.57	0.004
863.76	0.004
863.94	0.004
864.12	0.004
864.30	0.004
864.48	0.003
864.66	0.004
864.84	0.003
865.02	0.003
865.20	0.004
865.38	0.004
865.57	0.004
865.75	0.004
865.93	0.004
866.11	0.004
866.29	0.003
866.47	0.004
866.65	0.004
866.83	0.004
867.01	0.004
867.19	0.004
867.37	0.004
867.55	0.004
867.73	0.004
867.92	0.004
868.10	0.004
868.28	0.004
868.46	0.004
868.64	0.005
868.82	0.005
869.00	0.005
869.18	0.005
869.36	0.005
869.54	0.005
869.72	0.005
869.90	0.005
870.08	0.006
870.26	0.006
870.44	0.006
870.62	0.006
870.80	0.006
870.98	0.006
871.16	0.006
871.34	0.006
871.53	0.006
871.71	0.006
871.89	0.006
872.07	0.006
872.25	0.007
872.43	0.006
872.61	0.006
872.79	0.007
872.97	0.007
873.15	0.007
873.33	0.007
873.51	0.007
873.69	0.007
873.87	0.007
874.05	0.007
874.23	0.007
874.41	0.008
874.59	0.008
874.77	0.007
874.95	0.008
875.13	0.008
875.31	0.008
875.49	0.008
875.67	0.008
875.85	0.008
876.03	0.008
876.21	0.008
876.39	0.008
876.57	0.008
876.75	0.008
876.93	0.007
877.11	0.007
877.29	0.007
877.47	0.007
877.65	0.007
877.82	0.007
878.00	0.007
878.18	0.006
878.36	0.007
878.54	0.006
878.72	0.006
878.90	0.007
879.08	0.007
879.26	0.007
879.44	0.007
879.62	0.007
879.80	0.007
879.98	0.007
880.16	0.007
880.34	0.007
880.52	0.007
880.70	0.007
880.88	0.007
881.06	0.007
881.24	0.006
881.42	0.006
881.59	0.006
881.77	0.006
881.95	0.006
882.13	0.006
882.31	0.006
882.49	0.006
882.67	0.006
882.85	0.006
883.03	0.006
883.21	0.006
883.39	0.006
883.57	0.006
883.75	0.006
883.92	0.006
884.10	0.006
884.28	0.006
884.46	0.006
884.64	0.006
884.82	0.006
885.00	0.006
885.18	0.006
885.36	0.006
885.54	0.005
885.71	0.005
885.89	0.005
886.07	0.005
886.25	0.006
886.43	0.006
886.61	0.006
886.79	0.006
886.97	0.006
887.15	0.006
887.32	0.006
887.50	0.006
887.68	0.006
887.86	0.006
888.04	0.006
888.22	0.006
888.40	0.006
888.57	0.005
888.75	0.005
888.93	0.005
889.11	0.005
889.29	0.005
889.47	0.005
889.65	0.006
889.82	0.006
890.00	0.006
890.18	0.006
890.36	0.006
890.54	0.006
890.72	0.006
890.90	0.006
891.07	0.006
891.25	0.006
891.43	0.006
891.61	0.006
891.79	0.006
891.97	0.007
892.14	0.007
892.32	0.007
892.50	0.007
892.68	0.007
892.86	0.007
893.03	0.007
893.21	0.008
893.39	0.008
893.57	0.008
893.75	0.008
893.93	0.007
894.10	0.007
894.28	0.008
894.46	0.008
894.64	0.008
894.82	0.008
894.99	0.008
895.17	0.008
895.35	0.008
895.53	0.008
895.71	0.008
895.88	0.008
896.06	0.008
896.24	0.008
896.42	0.008
896.59	0.008
896.77	0.008
896.95	0.008
897.13	0.008
897.31	0.007
897.48	0.008
897.66	0.008
897.84	0.008
898.02	0.008
898.19	0.008
898.37	0.008
898.55	0.008
898.73	0.008
898.91	0.008
899.08	0.008
899.26	0.008
899.44	0.008
899.62	0.008
899.79	0.008
899.97	0.008
900.15	0.008
900.33	0.008
900.50	0.008
900.68	0.008
900.86	0.009
901.04	0.009
901.21	0.009
901.39	0.009
901.57	0.009
901.74	0.009
901.92	0.010
902.10	0.010
902.28	0.010
902.45	0.010
902.63	0.009
902.81	0.010
902.99	0.010
903.16	0.009
903.34	0.010
903.52	0.010
903.69	0.010
903.87	0.010
904.05	0.010
904.22	0.010
904.40	0.010
904.58	0.010
904.76	0.011
904.93	0.011
905.11	0.011
905.29	0.011
905.46	0.011
905.64	0.012
905.82	0.012
905.99	0.012
906.17	0.012
906.35	0.012
906.53	0.012
906.70	0.013
906.88	0.013
907.06	0.013
907.23	0.014
907.41	0.014
907.59	0.014
907.76	0.014
907.94	0.015
908.12	0.015
908.29	0.016
908.47	0.016
908.65	0.017
908.82	0.017
909.00	0.017
909.18	0.017
909.35	0.017
909.53	0.018
909.71	0.018
909.88	0.018
910.06	0.018
910.23	0.019
910.41	0.019
910.59	0.020
910.76	0.020
910.94	0.020
911.12	0.021
911.29	0.021
911.47	0.021
911.65	0.022
911.82	0.022
912.00	0.022
912.17	0.022
912.35	0.022
912.53	0.023
912.70	0.023
912.88	0.023
913.06	0.023
913.23	0.023
913.41	0.024
913.58	0.024
913.76	0.025
913.94	0.025
914.11	0.025
914.29	0.025
914.46	0.026
914.64	0.026
914.82	0.026
914.99	0.026
915.17	0.027
915.34	0.027
915.52	0.027
915.70	0.028
915.87	0.028
916.05	0.028
916.22	0.028
916.40	0.028
916.57	0.029
916.75	0.029
916.93	0.029
917.10	0.029
917.28	0.030
917.45	0.030
917.63	0.030
917.80	0.031
917.98	0.031
918.16	0.032
918.33	0.032
918.51	0.032
918.68	0.032
918.86	0.033
919.03	0.033
919.21	0.033
919.39	0.034
919.56	0.034
919.74	0.034
919.91	0.034
920.09	0.034
920.26	0.034
920.44	0.034
920.61	0.035
920.79	0.035
920.96	0.035
921.14	0.036
921.31	0.036
921.49	0.036
921.67	0.037
921.84	0.037
922.02	0.037
922.19	0.037
922.37	0.038
922.54	0.038
922.72	0.039
922.89	0.039
923.07	0.039
923.24	0.039
923.42	0.040
923.59	0.040
923.77	0.040
923.94	0.040
924.12	0.041
924.29	0.041
924.47	0.042
924.64	0.042
924.82	0.042
924.99	0.043
925.17	0.043
925.34	0.043
925.52	0.043
925.69	0.044
925.87	0.044
926.04	0.044
926.22	0.044
926.39	0.044
926.57	0.044
926.74	0.044
926.91	0.044
927.09	0.044
927.26	0.044
927.44	0.043
927.61	0.043
927.79	0.043
927.96	0.043
928.14	0.043
928.31	0.042
928.49	0.042
928.66	0.042
928.84	0.041
929.01	0.041
929.18	0.041
929.36	0.041
929.53	0.040
929.71	0.040
929.88	0.039
930.06	0.039
930.23	0.038
930.41	0.038
930.58	0.037
930.75	0.036
930.93	0.036
931.10	0.035
931.28	0.034
931.45	0.033
931.63	0.033
931.80	0.032
931.97	0.031
932.15	0.030
932.32	0.030
932.50	0.029
932.67	0.028
932.84	0.027
933.02	0.027
933.19	0.026
933.37	0.025
933.54	0.024
933.71	0.023
933.89	0.022
934.06	0.021
934.24	0.020
934.41	0.019
934.58	0.018
934.76	0.017
934.93	0.015
935.11	0.014
935.28	0.013
935.45	0.012
935.63	0.011
935.80	0.010
935.98	0.009
936.15	0.007
936.32	0.006
936.50	0.005
936.67	0.003
936.84	0.002
937.02	0.000
937.19	-0.001
937.36	-0.003
937.54	-0.005
937.71	-0.006
937.89	-0.007
938.06	-0.009
938.23	-0.010
938.41	-0.011
938.58	-0.013
938.75	-0.014
938.93	-0.015
939.10	-0.017
939.27	-0.018
939.45	-0.019
939.62	-0.020
939.79	-0.022
939.97	-0.023
940.14	-0.024
940.31	-0.026
940.49	-0.027
940.66	-0.029
940.83	-0.030
941.01	-0.031
941.18	-0.033
941.35	-0.034
941.53	-0.035
941.70	-0.036
941.87	-0.038
942.05	-0.039
942.22	-0.041
942.39	-0.042
942.57	-0.043
942.74	-0.044
942.91	-0.046
943.08	-0.047
943.26	-0.048
943.43	-0.049
943.60	-0.050
943.78	-0.052
943.95	-0.053
944.12	-0.053
944.29	-0.055
944.47	-0.056
944.64	-0.057
944.81	-0.059
944.99	-0.060
945.16	-0.061
945.33	-0.063
945.50	-0.064
945.68	-0.065
945.85	-0.067
946.02	-0.068
946.20	-0.070
946.37	-0.071
946.54	-0.072
946.71	-0.073
946.89	-0.074
947.06	-0.075
947.23	-0.077
947.40	-0.078
947.58	-0.079
947.75	-0.080
947.92	-0.082
948.09	-0.083
948.27	-0.084
948.44	-0.086
948.61	-0.087
948.78	-0.088
948.96	-0.090
949.13	-0.091
949.30	-0.093
949.47	-0.094
949.65	-0.095
949.82	-0.097
949.99	-0.098
950.16	-0.100
950.33	-0.101
950.51	-0.103
950.68	-0.104
950.85	-0.105
951.02	-0.107
951.20	-0.108
951.37	-0.110
951.54	-0.111
951.71	-0.113
951.88	-0.114
952.06	-0.116
952.23	-0.117
952.40	-0.119
952.57	-0.120
952.74	-0.122
952.92	-0.123
953.09	-0.125
953.26	-0.126
953.43	-0.127
953.60	-0.129
953.77	-0.130
953.95	-0.131
954.12	-0.133
954.29	-0.134
954.46	-0.135
954.63	-0.136
954.81	-0.137
954.98	-0.139
955.15	-0.140
955.32	-0.141
955.49	-0.142
955.66	-0.144
955.84	-0.146
956.01	-0.147
956.18	-0.148
956.35	-0.150
956.52	-0.151
956.69	-0.152
956.87	-0.153
957.04	-0.154
957.21	-0.155
957.38	-0.156
957.55	-0.157
957.72	-0.157
957.89	-0.158
958.07	-0.159
958.24	-0.160
958.41	-0.161
958.58	-0.161
958.75	-0.162
958.92	-0.163
959.09	-0.164
959.26	-0.165
959.44	-0.166
959.61	-0.167
959.78	-0.168
959.95	-0.169
960.12	-0.169
960.29	-0.170
960.46	-0.171
960.63	-0.171
960.81	-0.172
960.98	-0.173
961.15	-0.174
961.32	-0.174
961.49	-0.174
961.66	-0.175
961.83	-0.175
962.00	-0.176
962.17	-0.176
962.34	-0.176
962.52	-0.177
962.69	-0.177
962.86	-0.177
963.03	-0.176
963.20	-0.177
963.37	-0.178
963.54	-0.178
963.71	-0.178
963.88	-0.179
964.05	-0.179
964.22	-0.179
964.39	-0.179
964.56	-0.179
964.74	-0.180
964.91	-0.181
965.08	-0.180
965.25	-0.180
965.42	-0.180
965.59	-0.181
965.76	-0.181
965.93	-0.181
966.10	-0.181
966.27	-0.182
966.44	-0.182
966.61	-0.182
966.78	-0.182
966.95	-0.182
967.12	-0.182
967.29	-0.182
967.46	-0.183
967.63	-0.183
967.80	-0.183
967.97	-0.183
968.14	-0.183
968.32	-0.183
968.49	-0.183
968.66	-0.183
968.83	-0.183
969.00	-0.183
969.17	-0.183
969.34	-0.183
969.51	-0.184
969.68	-0.184
969.85	-0.184
970.02	-0.185
970.19	-0.184
970.36	-0.185
970.53	-0.185
970.70	-0.185
970.87	-0.186
971.04	-0.186
971.21	-0.186
971.38	-0.186
971.55	-0.186
971.72	-0.186
971.89	-0.186
972.06	-0.186
972.23	-0.186
972.40	-0.186
972.57	-0.187
972.74	-0.186
972.91	-0.186
973.07	-0.186
973.24	-0.187
973.41	-0.187
973.58	-0.187
973.75	-0.187
973.92	-0.187
974.09	-0.188
974.26	-0.188
974.43	-0.188
974.60	-0.188
974.77	-0.189
974.94	-0.188
975.11	-0.188
975.28	-0.188
975.45	-0.187
975.62	-0.188
975.79	-0.187
975.96	-0.187
976.13	-0.187
976.30	-0.187
976.47	-0.187
976.64	-0.188
976.80	-0.188
976.97	-0.188
977.14	-0.187
977.31	-0.188
977.48	-0.188
977.65	-0.188
977.82	-0.187
977.99	-0.187
978.16	-0.187
978.33	-0.187
978.50	-0.186
978.67	-0.186
978.83	-0.187
979.00	-0.187
979.17	-0.186
979.34	-0.187
979.51	-0.187
979.68	-0.186
979.85	-0.186
980.02	-0.186
980.19	-0.186
980.36	-0.187
980.52	-0.187
980.69	-0.186
980.86	-0.185
981.03	-0.185
981.20	-0.185
981.37	-0.185
981.54	-0.184
981.71	-0.184
981.88	-0.184
982.04	-0.183
982.21	-0.182
982.38	-0.182
982.55	-0.183
982.72	-0.182
982.89	-0.182
983.06	-0.181
983.22	-0.181
983.39	-0.181
983.56	-0.181
983.73	-0.181
983.90	-0.181
984.07	-0.181
984.24	-0.180
984.40	-0.180
984.57	-0.180
984.74	-0.180
984.91	-0.180
985.08	-0.180
985.25	-0.179
985.41	-0.179
985.58	-0.178
985.75	-0.178
985.92	-0.177
986.09	-0.177
986.26	-0.177
986.42	-0.177
986.59	-0.176
986.76	-0.176
986.93	-0.176
987.10	-0.177
987.27	-0.176
987.43	-0.177
987.60	-0.176
987.77	-0.176
987.94	-0.175
988.11	-0.175
988.27	-0.175
988.44	-0.174
988.61	-0.174
988.78	-0.173
988.95	-0.172
989.11	-0.172
989.28	-0.171
989.45	-0.171
989.62	-0.171
989.79	-0.170
989.95	-0.170
990.12	-0.169
990.29	-0.169
990.46	-0.169
990.62	-0.168
990.79	-0.169
990.96	-0.168
991.13	-0.168
991.30	-0.167
991.46	-0.167
991.63	-0.166
991.80	-0.167
991.97	-0.166
992.13	-0.165
992.30	-0.165
992.47	-0.165
992.64	-0.164
992.80	-0.164
992.97	-0.163
993.14	-0.163
993.31	-0.163
993.47	-0.162
993.64	-0.161
993.81	-0.161
993.98	-0.161
994.14	-0.161
994.31	-0.161
994.48	-0.160
994.64	-0.159
994.81	-0.159
994.98	-0.159
995.15	-0.159
995.31	-0.158
995.48	-0.158
995.65	-0.157
995.82	-0.156
995.98	-0.156
996.15	-0.155
996.32	-0.155
996.48	-0.155
996.65	-0.154
996.82	-0.153
996.99	-0.153
997.15	-0.152
997.32	-0.152
997.49	-0.152
997.65	-0.151
997.82	-0.151
997.99	-0.150
998.15	-0.151
998.32	-0.149
998.49	-0.150
998.65	-0.149
998.82	-0.148
998.99	-0.148
999.15	-0.147
999.32	-0.146
999.49	-0.146
999.65	-0.145
999.82	-0.145
999.99	-0.144
1000.15	-0.144
1000.32	-0.144
1000.49	-0.144
1000.65	-0.144
1000.82	-0.143
1000.99	-0.143
1001.15	-0.143
1001.32	-0.141
1001.49	-0.142
1001.65	-0.141
1001.82	-0.141
1001.99	-0.140
1002.15	-0.140
1002.32	-0.139
1002.49	-0.138
1002.65	-0.137
1002.82	-0.136
1002.99	-0.136
1003.15	-0.137
1003.32	-0.136
1003.48	-0.136
1003.65	-0.135
1003.82	-0.135
1003.98	-0.134
1004.15	-0.134
1004.32	-0.133
1004.48	-0.133
1004.65	-0.133
1004.81	-0.132
1004.98	-0.132
1005.15	-0.131
1005.31	-0.129
1005.48	-0.129
1005.64	-0.128
1005.81	-0.128
1005.98	-0.128
1006.14	-0.127
1006.31	-0.126
1006.47	-0.125
1006.64	-0.125
1006.81	-0.124
1006.97	-0.124
1007.14	-0.124
1007.30	-0.123
1007.47	-0.123
1007.63	-0.122
1007.80	-0.122
1007.97	-0.122
1008.13	-0.122
1008.30	-0.121
1008.46	-0.120
1008.63	-0.120
1008.79	-0.120
1008.96	-0.119
1009.13	-0.118
1009.29	-0.117
1009.46	-0.116
1009.62	-0.115
1009.79	-0.114
1009.95	-0.114
1010.12	-0.114
1010.28	-0.113
1010.45	-0.113
1010.62	-0.113
1010.78	-0.112
1010.95	-0.112
1011.11	-0.112
1011.28	-0.112
1011.44	-0.111
1011.61	-0.110
1011.77	-0.109
1011.94	-0.109
1012.10	-0.109
1012.27	-0.108
1012.43	-0.107
1012.60	-0.106
1012.76	-0.106
1012.93	-0.106
1013.10	-0.105
1013.26	-0.105
1013.43	-0.104
1013.59	-0.103
1013.76	-0.103
1013.92	-0.102
1014.09	-0.101
1014.25	-0.101
1014.42	-0.101
1014.58	-0.099
1014.75	-0.098
1014.91	-0.097
1015.08	-0.097
1015.24	-0.096
1015.41	-0.095
1015.57	-0.095
1015.73	-0.095
1015.90	-0.095
1016.06	-0.094
1016.23	-0.094
1016.39	-0.094
1016.56	-0.094
1016.72	-0.093
1016.89	-0.093
1017.05	-0.093
1017.22	-0.093
1017.38	-0.093
1017.55	-0.092
1017.71	-0.091
1017.88	-0.091
1018.04	-0.091
1018.21	-0.090
1018.37	-0.089
1018.53	-0.088
1018.70	-0.087
1018.86	-0.086
1019.03	-0.086
1019.19	-0.085
1019.36	-0.086
1019.52	-0.085
1019.69	-0.085
1019.85	-0.085
1020.01	-0.084
1020.18	-0.085
1020.34	-0.085
1020.51	-0.084
1020.67	-0.085
1020.84	-0.084
1021.00	-0.084
1021.16	-0.082
1021.33	-0.082
1021.49	-0.081
1021.66	-0.079
1021.82	-0.080
1021.98	-0.078
1022.15	-0.078
1022.31	-0.078
1022.48	-0.078
1022.64	-0.077
1022.80	-0.077
1022.97	-0.076
1023.13	-0.076
1023.30	-0.076
1023.46	-0.077
1023.62	-0.076
1023.79	-0.076
1023.95	-0.075
1024.12	-0.074
1024.28	-0.073
1024.44	-0.073
1024.61	-0.072
1024.77	-0.073
1024.93	-0.072
1025.10	-0.072
1025.26	-0.071
1025.43	-0.070
1025.59	-0.070
1025.75	-0.070
1025.92	-0.071
1026.08	-0.071
1026.24	-0.070
1026.41	-0.070
1026.57	-0.068
1026.73	-0.068
1026.90	-0.069
1027.06	-0.069
1027.23	-0.068
1027.39	-0.068
1027.55	-0.068
1027.72	-0.067
1027.88	-0.065
1028.04	-0.066
1028.21	-0.065
1028.37	-0.064
1028.53	-0.063
1028.70	-0.062
1028.86	-0.062
1029.02	-0.061
1029.19	-0.061
1029.35	-0.060
1029.51	-0.060
1029.67	-0.060
1029.84	-0.059
1030.00	-0.059
1030.16	-0.058
1030.33	-0.058
1030.49	-0.058
1030.65	-0.057
1030.82	-0.058
1030.98	-0.058
1031.14	-0.057
1031.31	-0.057
1031.47	-0.057
1031.63	-0.056
1031.79	-0.055
1031.96	-0.056
1032.12	-0.054
1032.28	-0.053
1032.45	-0.054
1032.61	-0.053
1032.77	-0.052
1032.93	-0.052
1033.10	-0.051
1033.26	-0.049
1033.42	-0.048
1033.58	-0.048
1033.75	-0.047
1033.91	-0.047
1034.07	-0.047
1034.24	-0.046
1034.40	-0.045
1034.56	-0.044
1034.72	-0.044
1034.89	-0.044
1035.05	-0.045
1035.21	-0.045
1035.37	-0.046
1035.54	-0.045
1035.70	-0.045
1035.86	-0.044
1036.02	-0.044
1036.19	-0.044
1036.35	-0.044
1036.51	-0.043
1036.67	-0.043
1036.83	-0.043
1037.00	-0.042
1037.16	-0.041
1037.32	-0.041
1037.48	-0.041
1037.65	-0.041
1037.81	-0.040
1037.97	-0.040
1038.13	-0.040
1038.29	-0.038
1038.46	-0.037
1038.62	-0.038
1038.78	-0.039
1038.94	-0.039
1039.10	-0.039
1039.27	-0.039
1039.43	-0.039
1039.59	-0.038
1039.75	-0.037
1039.91	-0.036
1040.08	-0.037
1040.24	-0.038
1040.40	-0.037
1040.56	-0.036
1040.72	-0.035
1040.89	-0.034
1041.05	-0.033
1041.21	-0.032
1041.37	-0.033
1041.53	-0.033
1041.69	-0.032
1041.86	-0.033
1042.02	-0.031
1042.18	-0.032
1042.34	-0.031
1042.50	-0.031
1042.66	-0.031
1042.83	-0.031
1042.99	-0.031
1043.15	-0.031
1043.31	-0.032
1043.47	-0.033
1043.63	-0.032
1043.79	-0.033
1043.96	-0.031
1044.12	-0.032
1044.28	-0.032
1044.44	-0.033
1044.60	-0.032
1044.76	-0.033
1044.92	-0.033
1045.09	-0.032
1045.25	-0.031
1045.41	-0.031
1045.57	-0.030
1045.73	-0.030
1045.89	-0.031
1046.05	-0.031
1046.21	-0.031
1046.38	-0.029
1046.54	-0.030
1046.70	-0.045
1046.86	-0.030
>>>>>End Processed Spectral Data<<<<<
