SpectraSuite Data File
++++++++++++++++++++++++++++++++++++
Date: Mon May 06 13:33:59 CDT 2013
User: Students
Dark Spectrum Present: Yes
Reference Spectrum Present: Yes
Number of Sampled Component Spectra: 1
Spectrometers: USB4H00887
Integration Time (usec): 50000 (USB4H00887)
Spectra Averaged: 10 (USB4H00887)
Boxcar Smoothing: 5 (USB4H00887)
Correct for Electrical Dark: No (USB4H00887)
Strobe/Lamp Enabled: No (USB4H00887)
Correct for Detector Non-linearity: No (USB4H00887)
Correct for Stray Light: No (USB4H00887)
Number of Pixels in Processed Spectrum: 3648
>>>>>Begin Processed Spectral Data<<<<<
345.83	-0.000
346.05	-0.000
346.26	-0.000
346.48	-0.000
346.70	-0.000
346.92	-0.196
347.14	-0.221
347.35	-0.297
347.57	-0.318
347.79	-0.278
348.01	-0.329
348.23	-0.450
348.44	-0.500
348.66	-0.395
348.88	-0.288
349.10	-0.196
349.32	-0.152
349.53	-0.125
349.75	-0.144
349.97	-0.148
350.19	-0.115
350.41	-0.113
350.62	-0.061
350.84	-0.036
351.06	-0.012
351.28	0.024
351.50	0.025
351.71	-0.017
351.93	-0.043
352.15	-0.033
352.37	-0.066
352.58	-0.087
352.80	-0.092
353.02	-0.103
353.24	-0.114
353.46	-0.138
353.67	-0.204
353.89	-0.192
354.11	-0.145
354.33	-0.165
354.54	-0.129
354.76	-0.085
354.98	-0.034
355.20	-0.052
355.41	-0.028
355.63	0.001
355.85	0.018
356.07	0.034
356.28	0.042
356.50	0.053
356.72	0.076
356.94	0.035
357.15	0.031
357.37	-0.006
357.59	-0.023
357.81	-0.050
358.02	-0.047
358.24	-0.019
358.46	-0.029
358.68	-0.005
358.89	-0.035
359.11	-0.067
359.33	-0.076
359.55	-0.081
359.76	-0.040
359.98	0.003
360.20	0.005
360.42	-0.029
360.63	-0.046
360.85	-0.026
361.07	-0.037
361.29	-0.015
361.50	-0.018
361.72	0.020
361.94	-0.013
362.15	-0.025
362.37	-0.017
362.59	0.005
362.81	-0.000
363.02	-0.016
363.24	-0.009
363.46	-0.006
363.68	0.003
363.89	0.025
364.11	0.048
364.33	0.073
364.54	0.094
364.76	0.070
364.98	0.056
365.20	0.047
365.41	0.071
365.63	0.063
365.85	0.029
366.06	0.024
366.28	0.017
366.50	0.012
366.71	0.016
366.93	0.008
367.15	0.048
367.37	0.061
367.58	0.098
367.80	0.088
368.02	0.082
368.23	0.128
368.45	0.100
368.67	0.131
368.88	0.092
369.10	0.083
369.32	0.069
369.53	0.062
369.75	0.060
369.97	0.030
370.19	-0.004
370.40	0.014
370.62	-0.012
370.84	-0.008
371.05	0.001
371.27	0.031
371.49	0.073
371.70	0.081
371.92	0.071
372.14	0.077
372.35	0.099
372.57	0.156
372.79	0.117
373.00	0.132
373.22	0.138
373.44	0.121
373.65	0.124
373.87	0.089
374.09	0.083
374.30	0.064
374.52	0.064
374.74	0.085
374.95	0.043
375.17	0.099
375.39	0.109
375.60	0.126
375.82	0.113
376.04	0.097
376.25	0.088
376.47	0.129
376.68	0.156
376.90	0.149
377.12	0.145
377.33	0.175
377.55	0.157
377.77	0.157
377.98	0.179
378.20	0.195
378.42	0.228
378.63	0.267
378.85	0.253
379.07	0.235
379.28	0.226
379.50	0.201
379.71	0.221
379.93	0.223
380.15	0.203
380.36	0.192
380.58	0.187
380.80	0.156
381.01	0.153
381.23	0.162
381.44	0.158
381.66	0.163
381.88	0.174
382.09	0.183
382.31	0.184
382.53	0.213
382.74	0.222
382.96	0.234
383.17	0.235
383.39	0.233
383.61	0.217
383.82	0.217
384.04	0.247
384.25	0.269
384.47	0.258
384.69	0.287
384.90	0.251
385.12	0.276
385.33	0.255
385.55	0.276
385.77	0.280
385.98	0.248
386.20	0.259
386.41	0.249
386.63	0.231
386.85	0.215
387.06	0.213
387.28	0.231
387.49	0.227
387.71	0.249
387.93	0.267
388.14	0.254
388.36	0.277
388.57	0.313
388.79	0.310
389.01	0.321
389.22	0.348
389.44	0.342
389.65	0.343
389.87	0.337
390.08	0.336
390.30	0.321
390.52	0.379
390.73	0.404
390.95	0.378
391.16	0.375
391.38	0.362
391.59	0.349
391.81	0.344
392.03	0.361
392.24	0.376
392.46	0.357
392.67	0.355
392.89	0.298
393.10	0.284
393.32	0.294
393.53	0.327
393.75	0.318
393.97	0.349
394.18	0.370
394.40	0.360
394.61	0.361
394.83	0.394
395.04	0.415
395.26	0.442
395.47	0.463
395.69	0.472
395.91	0.464
396.12	0.536
396.34	0.519
396.55	0.530
396.77	0.546
396.98	0.518
397.20	0.519
397.41	0.516
397.63	0.531
397.84	0.528
398.06	0.513
398.27	0.482
398.49	0.471
398.71	0.467
398.92	0.455
399.14	0.457
399.35	0.489
399.57	0.484
399.78	0.479
400.00	0.469
400.21	0.460
400.43	0.452
400.64	0.451
400.86	0.462
401.07	0.454
401.29	0.436
401.50	0.428
401.72	0.392
401.93	0.411
402.15	0.411
402.36	0.415
402.58	0.432
402.79	0.440
403.01	0.457
403.22	0.449
403.44	0.489
403.65	0.500
403.87	0.490
404.08	0.509
404.30	0.493
404.51	0.505
404.73	0.507
404.94	0.491
405.16	0.527
405.37	0.527
405.59	0.535
405.80	0.507
406.02	0.516
406.23	0.529
406.45	0.562
406.66	0.561
406.88	0.577
407.09	0.585
407.31	0.602
407.52	0.590
407.74	0.602
407.95	0.605
408.17	0.626
408.38	0.646
408.60	0.648
408.81	0.607
409.03	0.598
409.24	0.579
409.45	0.607
409.67	0.606
409.88	0.613
410.10	0.624
410.31	0.622
410.53	0.608
410.74	0.605
410.96	0.609
411.17	0.634
411.39	0.652
411.60	0.661
411.82	0.623
412.03	0.629
412.24	0.633
412.46	0.623
412.67	0.633
412.89	0.660
413.10	0.670
413.32	0.674
413.53	0.708
413.75	0.705
413.96	0.713
414.17	0.723
414.39	0.725
414.60	0.714
414.82	0.734
415.03	0.730
415.25	0.724
415.46	0.726
415.68	0.721
415.89	0.691
416.10	0.724
416.32	0.716
416.53	0.741
416.75	0.731
416.96	0.726
417.18	0.729
417.39	0.718
417.60	0.711
417.82	0.713
418.03	0.720
418.25	0.733
418.46	0.710
418.67	0.705
418.89	0.701
419.10	0.716
419.32	0.719
419.53	0.717
419.75	0.725
419.96	0.732
420.17	0.688
420.39	0.694
420.60	0.706
420.82	0.718
421.03	0.732
421.24	0.707
421.46	0.715
421.67	0.731
421.89	0.735
422.10	0.734
422.31	0.735
422.53	0.769
422.74	0.760
422.96	0.745
423.17	0.740
423.38	0.731
423.60	0.767
423.81	0.758
424.03	0.768
424.24	0.770
424.45	0.798
424.67	0.824
424.88	0.819
425.09	0.843
425.31	0.830
425.52	0.857
425.74	0.860
425.95	0.858
426.16	0.862
426.38	0.840
426.59	0.861
426.80	0.842
427.02	0.820
427.23	0.837
427.45	0.842
427.66	0.868
427.87	0.840
428.09	0.848
428.30	0.857
428.51	0.863
428.73	0.897
428.94	0.867
429.15	0.856
429.37	0.862
429.58	0.866
429.79	0.872
430.01	0.871
430.22	0.909
430.44	0.935
430.65	0.931
430.86	0.936
431.08	0.939
431.29	0.954
431.50	0.955
431.72	0.946
431.93	0.938
432.14	0.934
432.36	0.932
432.57	0.920
432.78	0.902
433.00	0.916
433.21	0.914
433.42	0.884
433.64	0.891
433.85	0.909
434.06	0.927
434.28	0.934
434.49	0.922
434.70	0.909
434.92	0.910
435.13	0.953
435.34	0.963
435.56	0.956
435.77	0.969
435.98	0.995
436.20	0.991
436.41	0.953
436.62	0.950
436.83	0.974
437.05	1.001
437.26	0.992
437.47	0.942
437.69	0.930
437.90	0.963
438.11	0.970
438.33	0.964
438.54	0.989
438.75	1.021
438.97	1.050
439.18	1.029
439.39	1.035
439.60	1.049
439.82	1.061
440.03	1.065
440.24	1.044
440.46	1.054
440.67	1.039
440.88	1.041
441.10	1.058
441.31	1.059
441.52	1.072
441.73	1.063
441.95	1.057
442.16	1.088
442.37	1.090
442.58	1.090
442.80	1.098
443.01	1.092
443.22	1.082
443.44	1.073
443.65	1.069
443.86	1.080
444.07	1.106
444.29	1.115
444.50	1.096
444.71	1.092
444.92	1.099
445.14	1.122
445.35	1.153
445.56	1.164
445.78	1.172
445.99	1.185
446.20	1.170
446.41	1.146
446.63	1.148
446.84	1.142
447.05	1.162
447.26	1.166
447.48	1.125
447.69	1.112
447.90	1.095
448.11	1.092
448.33	1.075
448.54	1.086
448.75	1.093
448.96	1.102
449.18	1.122
449.39	1.107
449.60	1.085
449.81	1.090
450.03	1.076
450.24	1.096
450.45	1.103
450.66	1.107
450.87	1.107
451.09	1.091
451.30	1.095
451.51	1.084
451.72	1.077
451.94	1.111
452.15	1.110
452.36	1.133
452.57	1.127
452.78	1.100
453.00	1.094
453.21	1.103
453.42	1.112
453.63	1.100
453.85	1.110
454.06	1.130
454.27	1.112
454.48	1.134
454.69	1.130
454.91	1.133
455.12	1.162
455.33	1.186
455.54	1.200
455.75	1.222
455.97	1.208
456.18	1.213
456.39	1.203
456.60	1.207
456.81	1.196
457.03	1.206
457.24	1.205
457.45	1.196
457.66	1.172
457.87	1.144
458.09	1.158
458.30	1.161
458.51	1.173
458.72	1.179
458.93	1.175
459.15	1.175
459.36	1.157
459.57	1.157
459.78	1.165
459.99	1.196
460.20	1.208
460.42	1.168
460.63	1.206
460.84	1.191
461.05	1.180
461.26	1.181
461.47	1.186
461.69	1.193
461.90	1.206
462.11	1.202
462.32	1.186
462.53	1.181
462.74	1.195
462.96	1.183
463.17	1.179
463.38	1.194
463.59	1.196
463.80	1.197
464.01	1.205
464.23	1.166
464.44	1.164
464.65	1.187
464.86	1.188
465.07	1.196
465.28	1.193
465.49	1.213
465.71	1.213
465.92	1.230
466.13	1.217
466.34	1.232
466.55	1.271
466.76	1.275
466.97	1.254
467.19	1.254
467.40	1.243
467.61	1.244
467.82	1.223
468.03	1.217
468.24	1.197
468.45	1.204
468.66	1.201
468.88	1.200
469.09	1.204
469.30	1.193
469.51	1.206
469.72	1.210
469.93	1.217
470.14	1.234
470.35	1.240
470.57	1.247
470.78	1.262
470.99	1.252
471.20	1.237
471.41	1.236
471.62	1.247
471.83	1.224
472.04	1.227
472.25	1.232
472.47	1.216
472.68	1.222
472.89	1.234
473.10	1.215
473.31	1.214
473.52	1.231
473.73	1.224
473.94	1.234
474.15	1.260
474.36	1.265
474.57	1.265
474.79	1.263
475.00	1.263
475.21	1.259
475.42	1.271
475.63	1.274
475.84	1.271
476.05	1.277
476.26	1.264
476.47	1.259
476.68	1.253
476.89	1.243
477.10	1.257
477.32	1.259
477.53	1.257
477.74	1.258
477.95	1.271
478.16	1.267
478.37	1.278
478.58	1.294
478.79	1.283
479.00	1.288
479.21	1.281
479.42	1.284
479.63	1.275
479.84	1.272
480.05	1.275
480.26	1.265
480.47	1.265
480.69	1.257
480.90	1.250
481.11	1.262
481.32	1.262
481.53	1.254
481.74	1.245
481.95	1.248
482.16	1.248
482.37	1.247
482.58	1.244
482.79	1.238
483.00	1.237
483.21	1.234
483.42	1.220
483.63	1.216
483.84	1.215
484.05	1.217
484.26	1.217
484.47	1.217
484.68	1.211
484.89	1.207
485.10	1.205
485.31	1.199
485.52	1.201
485.73	1.203
485.94	1.203
486.15	1.206
486.37	1.202
486.58	1.196
486.79	1.192
487.00	1.188
487.21	1.189
487.42	1.187
487.63	1.185
487.84	1.181
488.05	1.180
488.26	1.176
488.47	1.178
488.68	1.174
488.89	1.175
489.10	1.177
489.31	1.174
489.52	1.168
489.73	1.168
489.94	1.171
490.15	1.170
490.36	1.158
490.57	1.159
490.78	1.156
490.99	1.155
491.20	1.154
491.41	1.151
491.62	1.154
491.83	1.155
492.04	1.150
492.25	1.141
492.45	1.137
492.66	1.144
492.87	1.140
493.08	1.139
493.29	1.132
493.50	1.127
493.71	1.118
493.92	1.113
494.13	1.114
494.34	1.121
494.55	1.127
494.76	1.120
494.97	1.113
495.18	1.114
495.39	1.108
495.60	1.108
495.81	1.106
496.02	1.109
496.23	1.109
496.44	1.108
496.65	1.101
496.86	1.094
497.07	1.095
497.28	1.093
497.49	1.091
497.70	1.092
497.91	1.093
498.12	1.095
498.32	1.095
498.53	1.090
498.74	1.084
498.95	1.080
499.16	1.079
499.37	1.080
499.58	1.082
499.79	1.080
500.00	1.078
500.21	1.073
500.42	1.071
500.63	1.068
500.84	1.069
501.05	1.069
501.26	1.067
501.46	1.066
501.67	1.068
501.88	1.064
502.09	1.060
502.30	1.056
502.51	1.058
502.72	1.055
502.93	1.053
503.14	1.051
503.35	1.047
503.56	1.050
503.77	1.049
503.97	1.043
504.18	1.042
504.39	1.043
504.60	1.044
504.81	1.043
505.02	1.045
505.23	1.043
505.44	1.039
505.65	1.044
505.86	1.038
506.07	1.035
506.27	1.033
506.48	1.034
506.69	1.035
506.90	1.037
507.11	1.037
507.32	1.034
507.53	1.034
507.74	1.036
507.95	1.033
508.15	1.036
508.36	1.036
508.57	1.038
508.78	1.035
508.99	1.032
509.20	1.030
509.41	1.026
509.62	1.022
509.82	1.025
510.03	1.022
510.24	1.022
510.45	1.019
510.66	1.019
510.87	1.020
511.08	1.022
511.29	1.024
511.49	1.020
511.70	1.022
511.91	1.022
512.12	1.018
512.33	1.020
512.54	1.020
512.75	1.022
512.95	1.022
513.16	1.019
513.37	1.022
513.58	1.022
513.79	1.023
514.00	1.024
514.20	1.029
514.41	1.030
514.62	1.033
514.83	1.033
515.04	1.033
515.25	1.034
515.46	1.038
515.66	1.034
515.87	1.036
516.08	1.042
516.29	1.041
516.50	1.041
516.71	1.041
516.91	1.042
517.12	1.045
517.33	1.046
517.54	1.047
517.75	1.048
517.95	1.053
518.16	1.053
518.37	1.050
518.58	1.052
518.79	1.054
519.00	1.058
519.20	1.058
519.41	1.057
519.62	1.062
519.83	1.064
520.04	1.065
520.24	1.065
520.45	1.068
520.66	1.071
520.87	1.072
521.08	1.073
521.28	1.074
521.49	1.077
521.70	1.080
521.91	1.077
522.12	1.076
522.32	1.076
522.53	1.079
522.74	1.080
522.95	1.078
523.16	1.080
523.36	1.077
523.57	1.076
523.78	1.080
523.99	1.082
524.20	1.083
524.40	1.086
524.61	1.088
524.82	1.091
525.03	1.091
525.23	1.096
525.44	1.097
525.65	1.102
525.86	1.106
526.06	1.103
526.27	1.104
526.48	1.106
526.69	1.108
526.90	1.110
527.10	1.109
527.31	1.112
527.52	1.114
527.73	1.118
527.93	1.119
528.14	1.119
528.35	1.119
528.56	1.120
528.76	1.122
528.97	1.122
529.18	1.123
529.39	1.124
529.59	1.125
529.80	1.122
530.01	1.120
530.22	1.120
530.42	1.119
530.63	1.119
530.84	1.122
531.05	1.122
531.25	1.125
531.46	1.125
531.67	1.127
531.88	1.127
532.08	1.129
532.29	1.133
532.50	1.135
532.70	1.137
532.91	1.142
533.12	1.139
533.33	1.138
533.53	1.136
533.74	1.134
533.95	1.133
534.15	1.135
534.36	1.134
534.57	1.132
534.78	1.130
534.98	1.130
535.19	1.128
535.40	1.129
535.60	1.130
535.81	1.131
536.02	1.130
536.23	1.131
536.43	1.129
536.64	1.128
536.85	1.126
537.05	1.126
537.26	1.128
537.47	1.127
537.67	1.126
537.88	1.124
538.09	1.124
538.30	1.125
538.50	1.124
538.71	1.119
538.92	1.119
539.12	1.120
539.33	1.119
539.54	1.114
539.74	1.112
539.95	1.111
540.16	1.111
540.36	1.109
540.57	1.107
540.78	1.106
540.98	1.108
541.19	1.106
541.40	1.104
541.60	1.102
541.81	1.102
542.02	1.101
542.22	1.098
542.43	1.096
542.64	1.092
542.84	1.092
543.05	1.090
543.26	1.087
543.46	1.086
543.67	1.085
543.88	1.084
544.08	1.084
544.29	1.081
544.50	1.081
544.70	1.078
544.91	1.079
545.12	1.075
545.32	1.070
545.53	1.068
545.74	1.065
545.94	1.061
546.15	1.058
546.35	1.052
546.56	1.051
546.77	1.049
546.97	1.047
547.18	1.043
547.39	1.040
547.59	1.038
547.80	1.034
548.01	1.032
548.21	1.030
548.42	1.027
548.62	1.028
548.83	1.027
549.04	1.023
549.24	1.022
549.45	1.019
549.65	1.018
549.86	1.017
550.07	1.018
550.27	1.015
550.48	1.012
550.69	1.010
550.89	1.007
551.10	1.002
551.30	0.998
551.51	0.996
551.72	0.994
551.92	0.992
552.13	0.990
552.33	0.985
552.54	0.981
552.75	0.979
552.95	0.975
553.16	0.972
553.36	0.970
553.57	0.966
553.78	0.964
553.98	0.961
554.19	0.957
554.39	0.953
554.60	0.951
554.80	0.949
555.01	0.946
555.22	0.943
555.42	0.939
555.63	0.936
555.83	0.935
556.04	0.931
556.25	0.927
556.45	0.923
556.66	0.918
556.86	0.915
557.07	0.911
557.27	0.906
557.48	0.902
557.68	0.900
557.89	0.895
558.10	0.891
558.30	0.887
558.51	0.883
558.71	0.879
558.92	0.877
559.12	0.872
559.33	0.869
559.54	0.866
559.74	0.862
559.95	0.857
560.15	0.853
560.36	0.849
560.56	0.845
560.77	0.841
560.97	0.837
561.18	0.832
561.38	0.828
561.59	0.823
561.79	0.818
562.00	0.814
562.21	0.810
562.41	0.805
562.62	0.801
562.82	0.797
563.03	0.793
563.23	0.789
563.44	0.785
563.64	0.780
563.85	0.776
564.05	0.773
564.26	0.769
564.46	0.765
564.67	0.760
564.87	0.756
565.08	0.751
565.28	0.746
565.49	0.741
565.69	0.735
565.90	0.730
566.10	0.725
566.31	0.720
566.51	0.715
566.72	0.710
566.92	0.704
567.13	0.698
567.33	0.693
567.54	0.688
567.74	0.683
567.95	0.679
568.15	0.673
568.36	0.667
568.56	0.662
568.77	0.657
568.97	0.652
569.18	0.647
569.38	0.642
569.59	0.637
569.79	0.631
570.00	0.625
570.20	0.619
570.41	0.614
570.61	0.609
570.82	0.604
571.02	0.598
571.23	0.593
571.43	0.587
571.64	0.582
571.84	0.576
572.05	0.571
572.25	0.565
572.45	0.561
572.66	0.555
572.86	0.551
573.07	0.546
573.27	0.541
573.48	0.536
573.68	0.531
573.89	0.526
574.09	0.521
574.30	0.516
574.50	0.511
574.70	0.505
574.91	0.501
575.11	0.495
575.32	0.490
575.52	0.485
575.73	0.479
575.93	0.474
576.14	0.469
576.34	0.464
576.54	0.459
576.75	0.454
576.95	0.450
577.16	0.444
577.36	0.439
577.57	0.434
577.77	0.428
577.97	0.424
578.18	0.419
578.38	0.413
578.59	0.409
578.79	0.404
579.00	0.399
579.20	0.395
579.40	0.390
579.61	0.386
579.81	0.381
580.02	0.377
580.22	0.373
580.42	0.368
580.63	0.364
580.83	0.359
581.04	0.355
581.24	0.351
581.45	0.346
581.65	0.342
581.85	0.338
582.06	0.333
582.26	0.329
582.47	0.325
582.67	0.321
582.87	0.317
583.08	0.313
583.28	0.309
583.48	0.306
583.69	0.302
583.89	0.298
584.10	0.295
584.30	0.291
584.50	0.288
584.71	0.284
584.91	0.280
585.12	0.277
585.32	0.273
585.52	0.270
585.73	0.266
585.93	0.263
586.13	0.259
586.34	0.256
586.54	0.253
586.75	0.250
586.95	0.247
587.15	0.243
587.36	0.240
587.56	0.237
587.76	0.234
587.97	0.231
588.17	0.228
588.37	0.225
588.58	0.222
588.78	0.219
588.98	0.217
589.19	0.214
589.39	0.212
589.60	0.209
589.80	0.206
590.00	0.204
590.21	0.201
590.41	0.198
590.61	0.196
590.82	0.193
591.02	0.190
591.22	0.188
591.43	0.185
591.63	0.183
591.83	0.181
592.04	0.178
592.24	0.175
592.44	0.173
592.65	0.171
592.85	0.169
593.05	0.167
593.26	0.165
593.46	0.163
593.66	0.160
593.86	0.158
594.07	0.155
594.27	0.153
594.47	0.152
594.68	0.149
594.88	0.147
595.08	0.145
595.29	0.143
595.49	0.141
595.69	0.139
595.90	0.138
596.10	0.136
596.30	0.135
596.50	0.133
596.71	0.131
596.91	0.130
597.11	0.128
597.32	0.126
597.52	0.124
597.72	0.123
597.93	0.122
598.13	0.121
598.33	0.119
598.53	0.117
598.74	0.115
598.94	0.114
599.14	0.112
599.35	0.111
599.55	0.109
599.75	0.108
599.95	0.107
600.16	0.105
600.36	0.103
600.56	0.101
600.76	0.100
600.97	0.100
601.17	0.098
601.37	0.097
601.58	0.096
601.78	0.094
601.98	0.093
602.18	0.092
602.39	0.091
602.59	0.090
602.79	0.089
602.99	0.087
603.20	0.086
603.40	0.084
603.60	0.084
603.80	0.083
604.01	0.081
604.21	0.080
604.41	0.079
604.61	0.078
604.82	0.077
605.02	0.076
605.22	0.075
605.42	0.074
605.62	0.074
605.83	0.073
606.03	0.072
606.23	0.072
606.43	0.071
606.64	0.070
606.84	0.069
607.04	0.068
607.24	0.068
607.45	0.067
607.65	0.066
607.85	0.065
608.05	0.064
608.25	0.063
608.46	0.062
608.66	0.062
608.86	0.061
609.06	0.060
609.26	0.059
609.47	0.059
609.67	0.058
609.87	0.057
610.07	0.056
610.28	0.056
610.48	0.056
610.68	0.055
610.88	0.055
611.08	0.054
611.29	0.053
611.49	0.053
611.69	0.051
611.89	0.051
612.09	0.050
612.29	0.050
612.50	0.049
612.70	0.048
612.90	0.047
613.10	0.047
613.30	0.046
613.51	0.045
613.71	0.045
613.91	0.044
614.11	0.044
614.31	0.043
614.51	0.042
614.72	0.042
614.92	0.042
615.12	0.041
615.32	0.040
615.52	0.040
615.72	0.040
615.93	0.039
616.13	0.039
616.33	0.039
616.53	0.039
616.73	0.039
616.93	0.038
617.14	0.037
617.34	0.037
617.54	0.037
617.74	0.037
617.94	0.037
618.14	0.037
618.34	0.037
618.55	0.036
618.75	0.036
618.95	0.035
619.15	0.035
619.35	0.035
619.55	0.035
619.75	0.034
619.96	0.034
620.16	0.033
620.36	0.033
620.56	0.033
620.76	0.032
620.96	0.032
621.16	0.032
621.36	0.031
621.57	0.031
621.77	0.031
621.97	0.031
622.17	0.030
622.37	0.030
622.57	0.030
622.77	0.031
622.97	0.031
623.18	0.030
623.38	0.030
623.58	0.030
623.78	0.029
623.98	0.029
624.18	0.029
624.38	0.029
624.58	0.029
624.78	0.029
624.98	0.028
625.19	0.028
625.39	0.028
625.59	0.028
625.79	0.028
625.99	0.028
626.19	0.028
626.39	0.027
626.59	0.027
626.79	0.027
626.99	0.027
627.19	0.027
627.40	0.027
627.60	0.027
627.80	0.026
628.00	0.026
628.20	0.026
628.40	0.026
628.60	0.026
628.80	0.026
629.00	0.025
629.20	0.025
629.40	0.025
629.60	0.025
629.80	0.025
630.00	0.025
630.20	0.025
630.41	0.025
630.61	0.025
630.81	0.025
631.01	0.025
631.21	0.025
631.41	0.024
631.61	0.024
631.81	0.024
632.01	0.024
632.21	0.024
632.41	0.024
632.61	0.024
632.81	0.024
633.01	0.024
633.21	0.024
633.41	0.024
633.61	0.024
633.81	0.024
634.01	0.024
634.21	0.024
634.41	0.023
634.61	0.023
634.81	0.023
635.01	0.023
635.22	0.023
635.42	0.023
635.62	0.023
635.82	0.024
636.02	0.024
636.22	0.023
636.42	0.023
636.62	0.023
636.82	0.023
637.02	0.023
637.22	0.023
637.42	0.023
637.62	0.023
637.82	0.023
638.02	0.023
638.22	0.023
638.42	0.023
638.62	0.023
638.82	0.023
639.02	0.023
639.22	0.023
639.42	0.023
639.62	0.023
639.82	0.023
640.02	0.023
640.22	0.023
640.42	0.023
640.62	0.023
640.82	0.023
641.02	0.023
641.22	0.023
641.42	0.023
641.61	0.022
641.81	0.022
642.01	0.022
642.21	0.022
642.41	0.022
642.61	0.022
642.81	0.022
643.01	0.022
643.21	0.022
643.41	0.022
643.61	0.022
643.81	0.022
644.01	0.022
644.21	0.022
644.41	0.022
644.61	0.022
644.81	0.022
645.01	0.022
645.21	0.022
645.41	0.022
645.61	0.022
645.81	0.022
646.01	0.022
646.21	0.022
646.40	0.022
646.60	0.022
646.80	0.022
647.00	0.022
647.20	0.022
647.40	0.022
647.60	0.022
647.80	0.022
648.00	0.022
648.20	0.021
648.40	0.021
648.60	0.021
648.80	0.021
649.00	0.021
649.20	0.020
649.39	0.020
649.59	0.021
649.79	0.021
649.99	0.021
650.19	0.021
650.39	0.021
650.59	0.021
650.79	0.021
650.99	0.021
651.19	0.021
651.39	0.021
651.58	0.021
651.78	0.021
651.98	0.021
652.18	0.021
652.38	0.021
652.58	0.021
652.78	0.021
652.98	0.021
653.18	0.021
653.38	0.021
653.57	0.021
653.77	0.021
653.97	0.021
654.17	0.020
654.37	0.020
654.57	0.020
654.77	0.021
654.97	0.021
655.16	0.021
655.36	0.020
655.56	0.021
655.76	0.020
655.96	0.021
656.16	0.020
656.36	0.020
656.56	0.020
656.75	0.020
656.95	0.020
657.15	0.019
657.35	0.019
657.55	0.020
657.75	0.020
657.95	0.020
658.14	0.020
658.34	0.020
658.54	0.020
658.74	0.020
658.94	0.020
659.14	0.020
659.34	0.020
659.53	0.020
659.73	0.020
659.93	0.020
660.13	0.020
660.33	0.020
660.53	0.020
660.72	0.020
660.92	0.020
661.12	0.020
661.32	0.020
661.52	0.020
661.72	0.020
661.91	0.020
662.11	0.020
662.31	0.020
662.51	0.019
662.71	0.020
662.90	0.020
663.10	0.020
663.30	0.019
663.50	0.019
663.70	0.019
663.90	0.019
664.09	0.020
664.29	0.020
664.49	0.020
664.69	0.020
664.89	0.019
665.08	0.019
665.28	0.019
665.48	0.019
665.68	0.019
665.88	0.020
666.07	0.020
666.27	0.019
666.47	0.019
666.67	0.019
666.87	0.019
667.06	0.020
667.26	0.020
667.46	0.020
667.66	0.019
667.85	0.019
668.05	0.020
668.25	0.020
668.45	0.020
668.65	0.020
668.84	0.020
669.04	0.020
669.24	0.020
669.44	0.020
669.63	0.020
669.83	0.020
670.03	0.020
670.23	0.019
670.42	0.019
670.62	0.019
670.82	0.019
671.02	0.019
671.22	0.019
671.41	0.019
671.61	0.019
671.81	0.019
672.01	0.019
672.20	0.019
672.40	0.019
672.60	0.019
672.80	0.019
672.99	0.019
673.19	0.019
673.39	0.019
673.58	0.019
673.78	0.020
673.98	0.020
674.18	0.020
674.37	0.020
674.57	0.020
674.77	0.020
674.97	0.020
675.16	0.019
675.36	0.019
675.56	0.019
675.75	0.019
675.95	0.019
676.15	0.019
676.35	0.019
676.54	0.019
676.74	0.020
676.94	0.020
677.13	0.020
677.33	0.020
677.53	0.019
677.73	0.019
677.92	0.019
678.12	0.019
678.32	0.019
678.51	0.019
678.71	0.019
678.91	0.019
679.11	0.019
679.30	0.019
679.50	0.019
679.70	0.019
679.89	0.019
680.09	0.019
680.29	0.019
680.48	0.019
680.68	0.019
680.88	0.019
681.07	0.019
681.27	0.019
681.47	0.019
681.66	0.019
681.86	0.019
682.06	0.019
682.25	0.019
682.45	0.019
682.65	0.019
682.84	0.019
683.04	0.019
683.24	0.019
683.43	0.019
683.63	0.019
683.83	0.019
684.02	0.020
684.22	0.019
684.42	0.019
684.61	0.020
684.81	0.020
685.01	0.020
685.20	0.019
685.40	0.019
685.60	0.019
685.79	0.019
685.99	0.019
686.19	0.019
686.38	0.019
686.58	0.019
686.77	0.019
686.97	0.019
687.17	0.019
687.36	0.019
687.56	0.019
687.76	0.019
687.95	0.019
688.15	0.019
688.34	0.019
688.54	0.019
688.74	0.018
688.93	0.018
689.13	0.018
689.33	0.018
689.52	0.018
689.72	0.018
689.91	0.018
690.11	0.018
690.31	0.018
690.50	0.018
690.70	0.018
690.89	0.018
691.09	0.018
691.29	0.019
691.48	0.019
691.68	0.019
691.87	0.019
692.07	0.019
692.27	0.019
692.46	0.020
692.66	0.020
692.85	0.019
693.05	0.019
693.25	0.019
693.44	0.019
693.64	0.019
693.83	0.019
694.03	0.019
694.22	0.018
694.42	0.019
694.62	0.019
694.81	0.018
695.01	0.018
695.20	0.018
695.40	0.018
695.59	0.018
695.79	0.018
695.99	0.018
696.18	0.018
696.38	0.018
696.57	0.018
696.77	0.018
696.96	0.018
697.16	0.018
697.36	0.018
697.55	0.019
697.75	0.019
697.94	0.019
698.14	0.019
698.33	0.018
698.53	0.019
698.72	0.019
698.92	0.019
699.11	0.019
699.31	0.018
699.51	0.019
699.70	0.018
699.90	0.018
700.09	0.018
700.29	0.018
700.48	0.019
700.68	0.018
700.87	0.019
701.07	0.019
701.26	0.018
701.46	0.018
701.65	0.019
701.85	0.018
702.04	0.018
702.24	0.018
702.43	0.018
702.63	0.018
702.82	0.018
703.02	0.018
703.21	0.018
703.41	0.018
703.60	0.018
703.80	0.017
703.99	0.018
704.19	0.018
704.38	0.017
704.58	0.018
704.77	0.017
704.97	0.017
705.16	0.017
705.36	0.017
705.55	0.017
705.75	0.017
705.94	0.017
706.14	0.017
706.33	0.017
706.53	0.017
706.72	0.018
706.92	0.017
707.11	0.017
707.31	0.017
707.50	0.018
707.70	0.018
707.89	0.018
708.09	0.018
708.28	0.018
708.48	0.018
708.67	0.017
708.86	0.017
709.06	0.017
709.25	0.017
709.45	0.017
709.64	0.017
709.84	0.017
710.03	0.017
710.23	0.017
710.42	0.017
710.62	0.018
710.81	0.018
711.00	0.018
711.20	0.018
711.39	0.018
711.59	0.018
711.78	0.018
711.98	0.018
712.17	0.018
712.37	0.018
712.56	0.018
712.75	0.018
712.95	0.018
713.14	0.017
713.34	0.017
713.53	0.017
713.73	0.017
713.92	0.017
714.11	0.017
714.31	0.016
714.50	0.016
714.70	0.016
714.89	0.016
715.08	0.016
715.28	0.017
715.47	0.016
715.67	0.017
715.86	0.017
716.06	0.017
716.25	0.017
716.44	0.017
716.64	0.017
716.83	0.016
717.03	0.016
717.22	0.016
717.41	0.016
717.61	0.016
717.80	0.015
717.99	0.015
718.19	0.015
718.38	0.015
718.58	0.015
718.77	0.015
718.96	0.016
719.16	0.016
719.35	0.016
719.55	0.016
719.74	0.016
719.93	0.016
720.13	0.017
720.32	0.017
720.51	0.016
720.71	0.016
720.90	0.016
721.10	0.016
721.29	0.015
721.48	0.015
721.68	0.015
721.87	0.015
722.06	0.015
722.26	0.014
722.45	0.014
722.64	0.014
722.84	0.014
723.03	0.014
723.22	0.014
723.42	0.015
723.61	0.014
723.80	0.014
724.00	0.014
724.19	0.014
724.38	0.014
724.58	0.015
724.77	0.015
724.96	0.014
725.16	0.014
725.35	0.014
725.54	0.014
725.74	0.014
725.93	0.013
726.12	0.013
726.32	0.013
726.51	0.013
726.70	0.013
726.90	0.013
727.09	0.012
727.28	0.012
727.48	0.012
727.67	0.013
727.86	0.012
728.06	0.013
728.25	0.013
728.44	0.012
728.64	0.012
728.83	0.012
729.02	0.012
729.21	0.012
729.41	0.012
729.60	0.012
729.79	0.012
729.99	0.012
730.18	0.011
730.37	0.011
730.56	0.012
730.76	0.011
730.95	0.011
731.14	0.011
731.34	0.011
731.53	0.011
731.72	0.011
731.91	0.012
732.11	0.011
732.30	0.012
732.49	0.011
732.69	0.011
732.88	0.012
733.07	0.012
733.26	0.012
733.46	0.011
733.65	0.011
733.84	0.011
734.03	0.011
734.23	0.011
734.42	0.010
734.61	0.011
734.80	0.011
735.00	0.010
735.19	0.010
735.38	0.010
735.57	0.010
735.77	0.010
735.96	0.010
736.15	0.010
736.34	0.010
736.54	0.010
736.73	0.010
736.92	0.010
737.11	0.010
737.31	0.009
737.50	0.009
737.69	0.010
737.88	0.010
738.07	0.010
738.27	0.010
738.46	0.010
738.65	0.010
738.84	0.010
739.04	0.010
739.23	0.010
739.42	0.010
739.61	0.010
739.80	0.010
740.00	0.010
740.19	0.009
740.38	0.009
740.57	0.009
740.76	0.009
740.96	0.009
741.15	0.009
741.34	0.010
741.53	0.010
741.72	0.009
741.92	0.010
742.11	0.010
742.30	0.010
742.49	0.010
742.68	0.010
742.88	0.010
743.07	0.010
743.26	0.010
743.45	0.010
743.64	0.010
743.84	0.010
744.03	0.010
744.22	0.010
744.41	0.010
744.60	0.010
744.79	0.010
744.99	0.010
745.18	0.011
745.37	0.011
745.56	0.010
745.75	0.011
745.94	0.011
746.14	0.011
746.33	0.011
746.52	0.011
746.71	0.011
746.90	0.010
747.09	0.010
747.28	0.010
747.48	0.010
747.67	0.011
747.86	0.010
748.05	0.010
748.24	0.010
748.43	0.010
748.62	0.010
748.82	0.010
749.01	0.010
749.20	0.011
749.39	0.011
749.58	0.011
749.77	0.011
749.96	0.011
750.16	0.011
750.35	0.012
750.54	0.012
750.73	0.012
750.92	0.012
751.11	0.012
751.30	0.012
751.49	0.012
751.68	0.011
751.88	0.011
752.07	0.011
752.26	0.011
752.45	0.011
752.64	0.011
752.83	0.011
753.02	0.011
753.21	0.011
753.40	0.011
753.60	0.012
753.79	0.012
753.98	0.012
754.17	0.012
754.36	0.012
754.55	0.012
754.74	0.012
754.93	0.012
755.12	0.012
755.31	0.012
755.50	0.012
755.70	0.012
755.89	0.012
756.08	0.013
756.27	0.013
756.46	0.013
756.65	0.013
756.84	0.013
757.03	0.013
757.22	0.013
757.41	0.013
757.60	0.013
757.79	0.013
757.98	0.013
758.17	0.013
758.36	0.012
758.56	0.013
758.75	0.013
758.94	0.013
759.13	0.013
759.32	0.013
759.51	0.013
759.70	0.013
759.89	0.013
760.08	0.013
760.27	0.013
760.46	0.013
760.65	0.013
760.84	0.013
761.03	0.013
761.22	0.013
761.41	0.013
761.60	0.013
761.79	0.014
761.98	0.014
762.17	0.014
762.36	0.014
762.55	0.014
762.74	0.014
762.93	0.014
763.12	0.014
763.31	0.014
763.50	0.014
763.69	0.013
763.88	0.013
764.07	0.013
764.26	0.013
764.45	0.012
764.64	0.012
764.83	0.012
765.02	0.012
765.21	0.012
765.40	0.012
765.59	0.012
765.78	0.012
765.97	0.012
766.16	0.011
766.35	0.012
766.54	0.012
766.73	0.012
766.92	0.011
767.11	0.012
767.30	0.012
767.49	0.012
767.68	0.011
767.87	0.011
768.06	0.011
768.25	0.011
768.44	0.010
768.63	0.010
768.82	0.010
769.01	0.009
769.20	0.009
769.39	0.009
769.58	0.009
769.77	0.009
769.96	0.009
770.15	0.009
770.34	0.010
770.53	0.010
770.72	0.010
770.91	0.010
771.10	0.010
771.29	0.010
771.47	0.010
771.66	0.010
771.85	0.010
772.04	0.010
772.23	0.010
772.42	0.010
772.61	0.010
772.80	0.010
772.99	0.010
773.18	0.010
773.37	0.010
773.56	0.010
773.75	0.010
773.94	0.010
774.13	0.010
774.31	0.010
774.50	0.010
774.69	0.010
774.88	0.010
775.07	0.010
775.26	0.010
775.45	0.010
775.64	0.010
775.83	0.010
776.02	0.010
776.21	0.010
776.40	0.009
776.58	0.009
776.77	0.009
776.96	0.009
777.15	0.009
777.34	0.009
777.53	0.009
777.72	0.009
777.91	0.009
778.10	0.009
778.28	0.008
778.47	0.009
778.66	0.009
778.85	0.009
779.04	0.009
779.23	0.009
779.42	0.008
779.61	0.008
779.79	0.009
779.98	0.009
780.17	0.008
780.36	0.009
780.55	0.009
780.74	0.009
780.93	0.009
781.12	0.009
781.30	0.009
781.49	0.009
781.68	0.009
781.87	0.009
782.06	0.009
782.25	0.009
782.44	0.009
782.62	0.009
782.81	0.009
783.00	0.009
783.19	0.009
783.38	0.009
783.57	0.009
783.75	0.009
783.94	0.009
784.13	0.009
784.32	0.009
784.51	0.009
784.70	0.009
784.88	0.009
785.07	0.009
785.26	0.009
785.45	0.009
785.64	0.009
785.83	0.010
786.01	0.010
786.20	0.010
786.39	0.009
786.58	0.010
786.77	0.009
786.95	0.009
787.14	0.009
787.33	0.009
787.52	0.009
787.71	0.009
787.90	0.010
788.08	0.009
788.27	0.009
788.46	0.010
788.65	0.009
788.84	0.009
789.02	0.010
789.21	0.010
789.40	0.010
789.59	0.010
789.77	0.009
789.96	0.009
790.15	0.010
790.34	0.010
790.53	0.010
790.71	0.010
790.90	0.010
791.09	0.010
791.28	0.010
791.46	0.010
791.65	0.010
791.84	0.010
792.03	0.010
792.22	0.010
792.40	0.010
792.59	0.010
792.78	0.010
792.97	0.010
793.15	0.010
793.34	0.010
793.53	0.010
793.72	0.010
793.90	0.011
794.09	0.010
794.28	0.010
794.47	0.010
794.65	0.011
794.84	0.011
795.03	0.011
795.22	0.011
795.40	0.011
795.59	0.011
795.78	0.011
795.97	0.011
796.15	0.011
796.34	0.011
796.53	0.011
796.71	0.011
796.90	0.011
797.09	0.011
797.28	0.011
797.46	0.011
797.65	0.011
797.84	0.011
798.02	0.011
798.21	0.011
798.40	0.012
798.59	0.012
798.77	0.012
798.96	0.012
799.15	0.012
799.33	0.012
799.52	0.012
799.71	0.012
799.90	0.012
800.08	0.012
800.27	0.011
800.46	0.011
800.64	0.011
800.83	0.011
801.02	0.011
801.20	0.011
801.39	0.011
801.58	0.011
801.76	0.011
801.95	0.011
802.14	0.011
802.32	0.011
802.51	0.011
802.70	0.011
802.88	0.011
803.07	0.011
803.26	0.011
803.44	0.011
803.63	0.011
803.82	0.011
804.00	0.011
804.19	0.011
804.38	0.011
804.56	0.011
804.75	0.011
804.94	0.011
805.12	0.011
805.31	0.012
805.50	0.012
805.68	0.012
805.87	0.012
806.06	0.012
806.24	0.012
806.43	0.012
806.62	0.012
806.80	0.012
806.99	0.012
807.17	0.012
807.36	0.012
807.55	0.012
807.73	0.012
807.92	0.012
808.11	0.012
808.29	0.012
808.48	0.012
808.66	0.011
808.85	0.011
809.04	0.012
809.22	0.011
809.41	0.012
809.59	0.012
809.78	0.012
809.97	0.012
810.15	0.012
810.34	0.012
810.53	0.012
810.71	0.012
810.90	0.012
811.08	0.012
811.27	0.012
811.45	0.012
811.64	0.012
811.83	0.012
812.01	0.012
812.20	0.012
812.38	0.012
812.57	0.012
812.76	0.012
812.94	0.012
813.13	0.011
813.31	0.011
813.50	0.011
813.68	0.011
813.87	0.011
814.06	0.011
814.24	0.010
814.43	0.011
814.61	0.011
814.80	0.011
814.98	0.011
815.17	0.011
815.36	0.011
815.54	0.011
815.73	0.011
815.91	0.012
816.10	0.012
816.28	0.012
816.47	0.012
816.65	0.012
816.84	0.012
817.03	0.012
817.21	0.012
817.40	0.012
817.58	0.012
817.77	0.012
817.95	0.011
818.14	0.012
818.32	0.011
818.51	0.011
818.69	0.011
818.88	0.011
819.06	0.011
819.25	0.012
819.43	0.011
819.62	0.012
819.80	0.011
819.99	0.012
820.18	0.012
820.36	0.012
820.55	0.012
820.73	0.012
820.92	0.011
821.10	0.012
821.29	0.011
821.47	0.011
821.66	0.011
821.84	0.011
822.03	0.012
822.21	0.012
822.40	0.012
822.58	0.012
822.77	0.011
822.95	0.012
823.14	0.011
823.32	0.012
823.50	0.011
823.69	0.011
823.87	0.011
824.06	0.011
824.24	0.011
824.43	0.010
824.61	0.010
824.80	0.011
824.98	0.011
825.17	0.010
825.35	0.010
825.54	0.010
825.72	0.010
825.91	0.010
826.09	0.010
826.28	0.010
826.46	0.009
826.64	0.010
826.83	0.009
827.01	0.009
827.20	0.009
827.38	0.010
827.57	0.009
827.75	0.010
827.94	0.009
828.12	0.009
828.31	0.009
828.49	0.009
828.67	0.009
828.86	0.009
829.04	0.008
829.23	0.008
829.41	0.008
829.60	0.008
829.78	0.008
829.96	0.008
830.15	0.008
830.33	0.008
830.52	0.008
830.70	0.008
830.88	0.008
831.07	0.008
831.25	0.008
831.44	0.008
831.62	0.007
831.81	0.007
831.99	0.007
832.17	0.007
832.36	0.007
832.54	0.007
832.73	0.007
832.91	0.006
833.09	0.006
833.28	0.006
833.46	0.006
833.65	0.006
833.83	0.006
834.01	0.007
834.20	0.006
834.38	0.007
834.56	0.006
834.75	0.007
834.93	0.007
835.12	0.007
835.30	0.006
835.48	0.006
835.67	0.006
835.85	0.005
836.03	0.005
836.22	0.005
836.40	0.005
836.59	0.005
836.77	0.005
836.95	0.005
837.14	0.005
837.32	0.005
837.50	0.006
837.69	0.006
837.87	0.006
838.05	0.006
838.24	0.006
838.42	0.006
838.60	0.006
838.79	0.006
838.97	0.006
839.15	0.006
839.34	0.006
839.52	0.006
839.70	0.006
839.89	0.006
840.07	0.006
840.25	0.005
840.44	0.005
840.62	0.005
840.80	0.005
840.99	0.005
841.17	0.005
841.35	0.005
841.54	0.005
841.72	0.005
841.90	0.005
842.09	0.005
842.27	0.005
842.45	0.005
842.64	0.005
842.82	0.005
843.00	0.005
843.19	0.004
843.37	0.004
843.55	0.004
843.73	0.004
843.92	0.004
844.10	0.004
844.28	0.004
844.47	0.003
844.65	0.004
844.83	0.004
845.01	0.004
845.20	0.004
845.38	0.004
845.56	0.004
845.75	0.004
845.93	0.004
846.11	0.004
846.29	0.004
846.48	0.004
846.66	0.004
846.84	0.004
847.02	0.004
847.21	0.004
847.39	0.004
847.57	0.004
847.76	0.004
847.94	0.004
848.12	0.004
848.30	0.004
848.49	0.004
848.67	0.005
848.85	0.004
849.03	0.004
849.22	0.004
849.40	0.004
849.58	0.004
849.76	0.004
849.95	0.004
850.13	0.004
850.31	0.004
850.49	0.004
850.67	0.004
850.86	0.005
851.04	0.005
851.22	0.004
851.40	0.004
851.59	0.005
851.77	0.005
851.95	0.004
852.13	0.004
852.31	0.004
852.50	0.003
852.68	0.003
852.86	0.003
853.04	0.003
853.23	0.003
853.41	0.003
853.59	0.002
853.77	0.003
853.95	0.003
854.14	0.003
854.32	0.003
854.50	0.003
854.68	0.003
854.86	0.003
855.04	0.003
855.23	0.003
855.41	0.003
855.59	0.003
855.77	0.003
855.95	0.003
856.14	0.002
856.32	0.002
856.50	0.002
856.68	0.002
856.86	0.002
857.04	0.002
857.23	0.002
857.41	0.002
857.59	0.002
857.77	0.002
857.95	0.002
858.13	0.002
858.32	0.002
858.50	0.003
858.68	0.003
858.86	0.002
859.04	0.003
859.22	0.003
859.41	0.002
859.59	0.002
859.77	0.002
859.95	0.002
860.13	0.002
860.31	0.002
860.49	0.002
860.68	0.002
860.86	0.002
861.04	0.002
861.22	0.002
861.40	0.002
861.58	0.002
861.76	0.002
861.94	0.002
862.13	0.002
862.31	0.002
862.49	0.002
862.67	0.002
862.85	0.002
863.03	0.002
863.21	0.003
863.39	0.003
863.57	0.002
863.76	0.002
863.94	0.002
864.12	0.002
864.30	0.002
864.48	0.002
864.66	0.002
864.84	0.002
865.02	0.002
865.20	0.002
865.38	0.002
865.57	0.002
865.75	0.003
865.93	0.003
866.11	0.002
866.29	0.002
866.47	0.003
866.65	0.002
866.83	0.002
867.01	0.002
867.19	0.003
867.37	0.003
867.55	0.003
867.73	0.003
867.92	0.003
868.10	0.003
868.28	0.003
868.46	0.003
868.64	0.003
868.82	0.003
869.00	0.004
869.18	0.003
869.36	0.004
869.54	0.004
869.72	0.004
869.90	0.005
870.08	0.005
870.26	0.005
870.44	0.005
870.62	0.005
870.80	0.005
870.98	0.005
871.16	0.005
871.34	0.005
871.53	0.006
871.71	0.006
871.89	0.006
872.07	0.006
872.25	0.006
872.43	0.006
872.61	0.006
872.79	0.006
872.97	0.006
873.15	0.006
873.33	0.006
873.51	0.006
873.69	0.006
873.87	0.007
874.05	0.006
874.23	0.006
874.41	0.006
874.59	0.006
874.77	0.006
874.95	0.007
875.13	0.007
875.31	0.007
875.49	0.007
875.67	0.006
875.85	0.006
876.03	0.006
876.21	0.006
876.39	0.006
876.57	0.006
876.75	0.006
876.93	0.006
877.11	0.006
877.29	0.005
877.47	0.006
877.65	0.006
877.82	0.006
878.00	0.006
878.18	0.006
878.36	0.006
878.54	0.005
878.72	0.005
878.90	0.005
879.08	0.005
879.26	0.005
879.44	0.005
879.62	0.005
879.80	0.005
879.98	0.005
880.16	0.005
880.34	0.005
880.52	0.005
880.70	0.006
880.88	0.005
881.06	0.005
881.24	0.005
881.42	0.005
881.59	0.005
881.77	0.005
881.95	0.005
882.13	0.005
882.31	0.005
882.49	0.005
882.67	0.005
882.85	0.005
883.03	0.005
883.21	0.005
883.39	0.005
883.57	0.005
883.75	0.005
883.92	0.005
884.10	0.005
884.28	0.005
884.46	0.005
884.64	0.005
884.82	0.005
885.00	0.005
885.18	0.005
885.36	0.005
885.54	0.005
885.71	0.005
885.89	0.005
886.07	0.005
886.25	0.005
886.43	0.005
886.61	0.005
886.79	0.005
886.97	0.005
887.15	0.005
887.32	0.005
887.50	0.005
887.68	0.005
887.86	0.005
888.04	0.005
888.22	0.005
888.40	0.005
888.57	0.005
888.75	0.005
888.93	0.005
889.11	0.004
889.29	0.004
889.47	0.004
889.65	0.005
889.82	0.004
890.00	0.005
890.18	0.005
890.36	0.005
890.54	0.004
890.72	0.005
890.90	0.005
891.07	0.005
891.25	0.005
891.43	0.005
891.61	0.005
891.79	0.005
891.97	0.005
892.14	0.005
892.32	0.006
892.50	0.006
892.68	0.006
892.86	0.007
893.03	0.007
893.21	0.007
893.39	0.007
893.57	0.007
893.75	0.007
893.93	0.007
894.10	0.007
894.28	0.007
894.46	0.007
894.64	0.007
894.82	0.007
894.99	0.007
895.17	0.007
895.35	0.007
895.53	0.007
895.71	0.007
895.88	0.007
896.06	0.007
896.24	0.007
896.42	0.007
896.59	0.007
896.77	0.006
896.95	0.006
897.13	0.006
897.31	0.006
897.48	0.006
897.66	0.007
897.84	0.007
898.02	0.007
898.19	0.007
898.37	0.007
898.55	0.007
898.73	0.007
898.91	0.007
899.08	0.007
899.26	0.007
899.44	0.007
899.62	0.007
899.79	0.007
899.97	0.007
900.15	0.007
900.33	0.008
900.50	0.008
900.68	0.008
900.86	0.008
901.04	0.008
901.21	0.008
901.39	0.008
901.57	0.008
901.74	0.008
901.92	0.009
902.10	0.009
902.28	0.008
902.45	0.008
902.63	0.008
902.81	0.008
902.99	0.008
903.16	0.008
903.34	0.008
903.52	0.009
903.69	0.009
903.87	0.009
904.05	0.009
904.22	0.009
904.40	0.009
904.58	0.009
904.76	0.009
904.93	0.010
905.11	0.010
905.29	0.010
905.46	0.010
905.64	0.010
905.82	0.010
905.99	0.010
906.17	0.011
906.35	0.011
906.53	0.011
906.70	0.011
906.88	0.012
907.06	0.012
907.23	0.012
907.41	0.013
907.59	0.013
907.76	0.013
907.94	0.014
908.12	0.015
908.29	0.015
908.47	0.015
908.65	0.016
908.82	0.016
909.00	0.016
909.18	0.016
909.35	0.017
909.53	0.017
909.71	0.017
909.88	0.017
910.06	0.017
910.23	0.018
910.41	0.018
910.59	0.019
910.76	0.019
910.94	0.019
911.12	0.020
911.29	0.020
911.47	0.021
911.65	0.021
911.82	0.021
912.00	0.021
912.17	0.021
912.35	0.022
912.53	0.022
912.70	0.022
912.88	0.022
913.06	0.023
913.23	0.023
913.41	0.023
913.58	0.024
913.76	0.024
913.94	0.024
914.11	0.024
914.29	0.024
914.46	0.024
914.64	0.024
914.82	0.025
914.99	0.025
915.17	0.025
915.34	0.025
915.52	0.026
915.70	0.026
915.87	0.026
916.05	0.026
916.22	0.027
916.40	0.027
916.57	0.027
916.75	0.028
916.93	0.028
917.10	0.028
917.28	0.029
917.45	0.029
917.63	0.030
917.80	0.030
917.98	0.030
918.16	0.031
918.33	0.031
918.51	0.031
918.68	0.031
918.86	0.032
919.03	0.032
919.21	0.032
919.39	0.033
919.56	0.033
919.74	0.033
919.91	0.033
920.09	0.033
920.26	0.034
920.44	0.034
920.61	0.034
920.79	0.035
920.96	0.035
921.14	0.035
921.31	0.036
921.49	0.036
921.67	0.036
921.84	0.036
922.02	0.037
922.19	0.037
922.37	0.037
922.54	0.038
922.72	0.038
922.89	0.038
923.07	0.038
923.24	0.039
923.42	0.039
923.59	0.039
923.77	0.040
923.94	0.040
924.12	0.040
924.29	0.041
924.47	0.041
924.64	0.042
924.82	0.042
924.99	0.042
925.17	0.042
925.34	0.042
925.52	0.043
925.69	0.043
925.87	0.043
926.04	0.043
926.22	0.043
926.39	0.042
926.57	0.042
926.74	0.043
926.91	0.042
927.09	0.042
927.26	0.042
927.44	0.042
927.61	0.042
927.79	0.042
927.96	0.041
928.14	0.041
928.31	0.041
928.49	0.041
928.66	0.041
928.84	0.040
929.01	0.040
929.18	0.040
929.36	0.040
929.53	0.039
929.71	0.039
929.88	0.039
930.06	0.038
930.23	0.038
930.41	0.037
930.58	0.037
930.75	0.036
930.93	0.035
931.10	0.035
931.28	0.034
931.45	0.033
931.63	0.032
931.80	0.031
931.97	0.030
932.15	0.029
932.32	0.029
932.50	0.028
932.67	0.027
932.84	0.026
933.02	0.025
933.19	0.025
933.37	0.024
933.54	0.023
933.71	0.022
933.89	0.022
934.06	0.020
934.24	0.019
934.41	0.019
934.58	0.017
934.76	0.016
934.93	0.015
935.11	0.014
935.28	0.013
935.45	0.012
935.63	0.010
935.80	0.009
935.98	0.008
936.15	0.006
936.32	0.005
936.50	0.003
936.67	0.002
936.84	0.001
937.02	-0.001
937.19	-0.003
937.36	-0.004
937.54	-0.005
937.71	-0.007
937.89	-0.008
938.06	-0.009
938.23	-0.010
938.41	-0.012
938.58	-0.013
938.75	-0.014
938.93	-0.015
939.10	-0.016
939.27	-0.018
939.45	-0.019
939.62	-0.021
939.79	-0.022
939.97	-0.023
940.14	-0.025
940.31	-0.026
940.49	-0.028
940.66	-0.029
940.83	-0.031
941.01	-0.032
941.18	-0.033
941.35	-0.035
941.53	-0.036
941.70	-0.037
941.87	-0.038
942.05	-0.040
942.22	-0.042
942.39	-0.043
942.57	-0.044
942.74	-0.045
942.91	-0.047
943.08	-0.048
943.26	-0.049
943.43	-0.050
943.60	-0.051
943.78	-0.053
943.95	-0.054
944.12	-0.055
944.29	-0.056
944.47	-0.058
944.64	-0.059
944.81	-0.061
944.99	-0.062
945.16	-0.063
945.33	-0.065
945.50	-0.066
945.68	-0.067
945.85	-0.068
946.02	-0.070
946.20	-0.071
946.37	-0.072
946.54	-0.073
946.71	-0.074
946.89	-0.076
947.06	-0.077
947.23	-0.078
947.40	-0.079
947.58	-0.081
947.75	-0.082
947.92	-0.083
948.09	-0.085
948.27	-0.086
948.44	-0.088
948.61	-0.089
948.78	-0.090
948.96	-0.092
949.13	-0.093
949.30	-0.094
949.47	-0.095
949.65	-0.096
949.82	-0.098
949.99	-0.099
950.16	-0.101
950.33	-0.101
950.51	-0.103
950.68	-0.104
950.85	-0.106
951.02	-0.108
951.20	-0.109
951.37	-0.111
951.54	-0.113
951.71	-0.114
951.88	-0.115
952.06	-0.116
952.23	-0.118
952.40	-0.120
952.57	-0.121
952.74	-0.122
952.92	-0.124
953.09	-0.125
953.26	-0.126
953.43	-0.128
953.60	-0.129
953.77	-0.131
953.95	-0.132
954.12	-0.133
954.29	-0.134
954.46	-0.136
954.63	-0.138
954.81	-0.138
954.98	-0.140
955.15	-0.141
955.32	-0.143
955.49	-0.144
955.66	-0.146
955.84	-0.147
956.01	-0.148
956.18	-0.150
956.35	-0.150
956.52	-0.151
956.69	-0.152
956.87	-0.154
957.04	-0.155
957.21	-0.156
957.38	-0.157
957.55	-0.158
957.72	-0.159
957.89	-0.160
958.07	-0.161
958.24	-0.162
958.41	-0.163
958.58	-0.164
958.75	-0.164
958.92	-0.165
959.09	-0.166
959.26	-0.167
959.44	-0.167
959.61	-0.168
959.78	-0.169
959.95	-0.170
960.12	-0.171
960.29	-0.171
960.46	-0.172
960.63	-0.172
960.81	-0.173
960.98	-0.173
961.15	-0.174
961.32	-0.175
961.49	-0.175
961.66	-0.175
961.83	-0.176
962.00	-0.176
962.17	-0.177
962.34	-0.177
962.52	-0.177
962.69	-0.178
962.86	-0.178
963.03	-0.177
963.20	-0.178
963.37	-0.179
963.54	-0.179
963.71	-0.179
963.88	-0.180
964.05	-0.180
964.22	-0.180
964.39	-0.181
964.56	-0.181
964.74	-0.182
964.91	-0.182
965.08	-0.182
965.25	-0.182
965.42	-0.182
965.59	-0.183
965.76	-0.183
965.93	-0.183
966.10	-0.183
966.27	-0.183
966.44	-0.183
966.61	-0.183
966.78	-0.183
966.95	-0.184
967.12	-0.184
967.29	-0.184
967.46	-0.184
967.63	-0.184
967.80	-0.184
967.97	-0.184
968.14	-0.184
968.32	-0.184
968.49	-0.185
968.66	-0.185
968.83	-0.185
969.00	-0.185
969.17	-0.185
969.34	-0.185
969.51	-0.185
969.68	-0.186
969.85	-0.186
970.02	-0.186
970.19	-0.186
970.36	-0.186
970.53	-0.186
970.70	-0.186
970.87	-0.186
971.04	-0.186
971.21	-0.187
971.38	-0.187
971.55	-0.186
971.72	-0.187
971.89	-0.187
972.06	-0.187
972.23	-0.187
972.40	-0.187
972.57	-0.188
972.74	-0.188
972.91	-0.188
973.07	-0.188
973.24	-0.189
973.41	-0.189
973.58	-0.189
973.75	-0.188
973.92	-0.189
974.09	-0.189
974.26	-0.189
974.43	-0.188
974.60	-0.189
974.77	-0.189
974.94	-0.189
975.11	-0.188
975.28	-0.188
975.45	-0.188
975.62	-0.188
975.79	-0.188
975.96	-0.188
976.13	-0.188
976.30	-0.189
976.47	-0.189
976.64	-0.190
976.80	-0.190
976.97	-0.190
977.14	-0.189
977.31	-0.190
977.48	-0.189
977.65	-0.189
977.82	-0.189
977.99	-0.189
978.16	-0.189
978.33	-0.189
978.50	-0.188
978.67	-0.188
978.83	-0.188
979.00	-0.188
979.17	-0.188
979.34	-0.188
979.51	-0.188
979.68	-0.187
979.85	-0.187
980.02	-0.187
980.19	-0.187
980.36	-0.188
980.52	-0.188
980.69	-0.187
980.86	-0.187
981.03	-0.186
981.20	-0.186
981.37	-0.186
981.54	-0.186
981.71	-0.186
981.88	-0.185
982.04	-0.184
982.21	-0.184
982.38	-0.184
982.55	-0.184
982.72	-0.184
982.89	-0.184
983.06	-0.183
983.22	-0.183
983.39	-0.183
983.56	-0.183
983.73	-0.183
983.90	-0.183
984.07	-0.183
984.24	-0.183
984.40	-0.182
984.57	-0.182
984.74	-0.182
984.91	-0.182
985.08	-0.181
985.25	-0.181
985.41	-0.180
985.58	-0.180
985.75	-0.180
985.92	-0.179
986.09	-0.179
986.26	-0.179
986.42	-0.178
986.59	-0.178
986.76	-0.178
986.93	-0.178
987.10	-0.179
987.27	-0.178
987.43	-0.178
987.60	-0.177
987.77	-0.177
987.94	-0.176
988.11	-0.175
988.27	-0.175
988.44	-0.175
988.61	-0.174
988.78	-0.174
988.95	-0.172
989.11	-0.172
989.28	-0.172
989.45	-0.172
989.62	-0.171
989.79	-0.171
989.95	-0.170
990.12	-0.170
990.29	-0.170
990.46	-0.170
990.62	-0.170
990.79	-0.170
990.96	-0.170
991.13	-0.169
991.30	-0.169
991.46	-0.168
991.63	-0.168
991.80	-0.168
991.97	-0.167
992.13	-0.166
992.30	-0.166
992.47	-0.166
992.64	-0.166
992.80	-0.165
992.97	-0.165
993.14	-0.165
993.31	-0.164
993.47	-0.164
993.64	-0.164
993.81	-0.164
993.98	-0.163
994.14	-0.163
994.31	-0.162
994.48	-0.162
994.64	-0.161
994.81	-0.161
994.98	-0.160
995.15	-0.160
995.31	-0.158
995.48	-0.158
995.65	-0.157
995.82	-0.157
995.98	-0.157
996.15	-0.156
996.32	-0.156
996.48	-0.156
996.65	-0.155
996.82	-0.155
996.99	-0.154
997.15	-0.154
997.32	-0.154
997.49	-0.154
997.65	-0.153
997.82	-0.153
997.99	-0.152
998.15	-0.152
998.32	-0.150
998.49	-0.150
998.65	-0.150
998.82	-0.150
998.99	-0.149
999.15	-0.148
999.32	-0.148
999.49	-0.148
999.65	-0.147
999.82	-0.147
999.99	-0.147
1000.15	-0.147
1000.32	-0.146
1000.49	-0.146
1000.65	-0.145
1000.82	-0.145
1000.99	-0.145
1001.15	-0.144
1001.32	-0.143
1001.49	-0.144
1001.65	-0.143
1001.82	-0.143
1001.99	-0.141
1002.15	-0.141
1002.32	-0.140
1002.49	-0.139
1002.65	-0.139
1002.82	-0.138
1002.99	-0.137
1003.15	-0.138
1003.32	-0.137
1003.48	-0.136
1003.65	-0.135
1003.82	-0.136
1003.98	-0.135
1004.15	-0.135
1004.32	-0.134
1004.48	-0.134
1004.65	-0.135
1004.81	-0.134
1004.98	-0.133
1005.15	-0.133
1005.31	-0.132
1005.48	-0.131
1005.64	-0.131
1005.81	-0.131
1005.98	-0.130
1006.14	-0.130
1006.31	-0.128
1006.47	-0.127
1006.64	-0.126
1006.81	-0.126
1006.97	-0.125
1007.14	-0.125
1007.30	-0.125
1007.47	-0.125
1007.63	-0.123
1007.80	-0.123
1007.97	-0.124
1008.13	-0.123
1008.30	-0.123
1008.46	-0.122
1008.63	-0.122
1008.79	-0.122
1008.96	-0.121
1009.13	-0.120
1009.29	-0.119
1009.46	-0.118
1009.62	-0.118
1009.79	-0.116
1009.95	-0.116
1010.12	-0.116
1010.28	-0.115
1010.45	-0.114
1010.62	-0.113
1010.78	-0.113
1010.95	-0.112
1011.11	-0.111
1011.28	-0.111
1011.44	-0.110
1011.61	-0.111
1011.77	-0.110
1011.94	-0.109
1012.10	-0.109
1012.27	-0.109
1012.43	-0.108
1012.60	-0.107
1012.76	-0.107
1012.93	-0.107
1013.10	-0.106
1013.26	-0.106
1013.43	-0.105
1013.59	-0.104
1013.76	-0.104
1013.92	-0.103
1014.09	-0.102
1014.25	-0.101
1014.42	-0.101
1014.58	-0.100
1014.75	-0.099
1014.91	-0.098
1015.08	-0.098
1015.24	-0.097
1015.41	-0.097
1015.57	-0.097
1015.73	-0.097
1015.90	-0.096
1016.06	-0.096
1016.23	-0.096
1016.39	-0.095
1016.56	-0.095
1016.72	-0.095
1016.89	-0.094
1017.05	-0.094
1017.22	-0.094
1017.38	-0.093
1017.55	-0.093
1017.71	-0.092
1017.88	-0.092
1018.04	-0.092
1018.21	-0.092
1018.37	-0.091
1018.53	-0.090
1018.70	-0.090
1018.86	-0.089
1019.03	-0.089
1019.19	-0.088
1019.36	-0.088
1019.52	-0.088
1019.69	-0.087
1019.85	-0.086
1020.01	-0.085
1020.18	-0.085
1020.34	-0.085
1020.51	-0.084
1020.67	-0.084
1020.84	-0.084
1021.00	-0.084
1021.16	-0.082
1021.33	-0.081
1021.49	-0.081
1021.66	-0.081
1021.82	-0.081
1021.98	-0.079
1022.15	-0.078
1022.31	-0.078
1022.48	-0.078
1022.64	-0.077
1022.80	-0.077
1022.97	-0.078
1023.13	-0.078
1023.30	-0.078
1023.46	-0.078
1023.62	-0.078
1023.79	-0.078
1023.95	-0.077
1024.12	-0.077
1024.28	-0.076
1024.44	-0.077
1024.61	-0.076
1024.77	-0.075
1024.93	-0.075
1025.10	-0.074
1025.26	-0.072
1025.43	-0.072
1025.59	-0.071
1025.75	-0.070
1025.92	-0.070
1026.08	-0.070
1026.24	-0.069
1026.41	-0.069
1026.57	-0.068
1026.73	-0.069
1026.90	-0.069
1027.06	-0.068
1027.23	-0.068
1027.39	-0.069
1027.55	-0.069
1027.72	-0.069
1027.88	-0.068
1028.04	-0.068
1028.21	-0.066
1028.37	-0.066
1028.53	-0.065
1028.70	-0.063
1028.86	-0.064
1029.02	-0.062
1029.19	-0.062
1029.35	-0.061
1029.51	-0.059
1029.67	-0.059
1029.84	-0.058
1030.00	-0.058
1030.16	-0.057
1030.33	-0.057
1030.49	-0.057
1030.65	-0.056
1030.82	-0.056
1030.98	-0.055
1031.14	-0.055
1031.31	-0.055
1031.47	-0.056
1031.63	-0.055
1031.79	-0.054
1031.96	-0.055
1032.12	-0.054
1032.28	-0.052
1032.45	-0.052
1032.61	-0.053
1032.77	-0.052
1032.93	-0.051
1033.10	-0.050
1033.26	-0.049
1033.42	-0.049
1033.58	-0.048
1033.75	-0.047
1033.91	-0.047
1034.07	-0.047
1034.24	-0.047
1034.40	-0.046
1034.56	-0.046
1034.72	-0.045
1034.89	-0.045
1035.05	-0.045
1035.21	-0.045
1035.37	-0.045
1035.54	-0.046
1035.70	-0.044
1035.86	-0.044
1036.02	-0.042
1036.19	-0.042
1036.35	-0.041
1036.51	-0.042
1036.67	-0.042
1036.83	-0.041
1037.00	-0.041
1037.16	-0.040
1037.32	-0.040
1037.48	-0.040
1037.65	-0.039
1037.81	-0.039
1037.97	-0.039
1038.13	-0.040
1038.29	-0.038
1038.46	-0.038
1038.62	-0.039
1038.78	-0.040
1038.94	-0.040
1039.10	-0.039
1039.27	-0.040
1039.43	-0.041
1039.59	-0.040
1039.75	-0.040
1039.91	-0.039
1040.08	-0.039
1040.24	-0.039
1040.40	-0.038
1040.56	-0.037
1040.72	-0.036
1040.89	-0.035
1041.05	-0.036
1041.21	-0.035
1041.37	-0.035
1041.53	-0.034
1041.69	-0.034
1041.86	-0.034
1042.02	-0.032
1042.18	-0.033
1042.34	-0.031
1042.50	-0.032
1042.66	-0.033
1042.83	-0.032
1042.99	-0.031
1043.15	-0.031
1043.31	-0.031
1043.47	-0.032
1043.63	-0.033
1043.79	-0.033
1043.96	-0.032
1044.12	-0.033
1044.28	-0.031
1044.44	-0.031
1044.60	-0.031
1044.76	-0.032
1044.92	-0.032
1045.09	-0.032
1045.25	-0.031
1045.41	-0.030
1045.57	-0.029
1045.73	-0.030
1045.89	-0.032
1046.05	-0.032
1046.21	-0.027
1046.38	-0.022
1046.54	-0.037
1046.70	-0.048
1046.86	-0.025
>>>>>End Processed Spectral Data<<<<<
