SpectraSuite Data File
++++++++++++++++++++++++++++++++++++
Date: Mon May 06 13:32:52 CDT 2013
User: Students
Dark Spectrum Present: Yes
Reference Spectrum Present: Yes
Number of Sampled Component Spectra: 1
Spectrometers: USB4H00887
Integration Time (usec): 50000 (USB4H00887)
Spectra Averaged: 10 (USB4H00887)
Boxcar Smoothing: 5 (USB4H00887)
Correct for Electrical Dark: No (USB4H00887)
Strobe/Lamp Enabled: No (USB4H00887)
Correct for Detector Non-linearity: No (USB4H00887)
Correct for Stray Light: No (USB4H00887)
Number of Pixels in Processed Spectrum: 3648
>>>>>Begin Processed Spectral Data<<<<<
345.83	-0.000
346.05	-0.000
346.26	-0.000
346.48	-0.000
346.70	-0.000
346.92	0.343
347.14	0.087
347.35	-0.073
347.57	-0.035
347.79	0.088
348.01	-0.107
348.23	-0.302
348.44	-0.312
348.66	-0.182
348.88	-0.157
349.10	-0.133
349.32	-0.046
349.53	-0.011
349.75	-0.063
349.97	-0.096
350.19	-0.115
350.41	-0.145
350.62	-0.120
350.84	-0.109
351.06	-0.107
351.28	-0.078
351.50	-0.071
351.71	-0.117
351.93	-0.143
352.15	-0.099
352.37	-0.122
352.58	-0.107
352.80	-0.092
353.02	-0.057
353.24	-0.090
353.46	-0.100
353.67	-0.183
353.89	-0.133
354.11	-0.076
354.33	-0.108
354.54	-0.108
354.76	-0.102
354.98	-0.070
355.20	-0.096
355.41	-0.106
355.63	-0.079
355.85	-0.046
356.07	0.018
356.28	0.005
356.50	-0.019
356.72	0.010
356.94	-0.007
357.15	0.020
357.37	-0.025
357.59	-0.006
357.81	0.006
358.02	0.033
358.24	0.044
358.46	0.035
358.68	0.037
358.89	0.034
359.11	0.027
359.33	0.026
359.55	-0.010
359.76	0.028
359.98	0.046
360.20	0.055
360.42	0.022
360.63	-0.005
360.85	0.003
361.07	0.002
361.29	0.016
361.50	0.014
361.72	0.010
361.94	0.026
362.15	-0.000
362.37	0.010
362.59	-0.007
362.81	-0.021
363.02	-0.041
363.24	-0.060
363.46	-0.052
363.68	-0.049
363.89	-0.023
364.11	-0.001
364.33	-0.015
364.54	0.012
364.76	-0.022
364.98	-0.019
365.20	0.001
365.41	0.066
365.63	0.072
365.85	0.051
366.06	0.062
366.28	0.039
366.50	0.057
366.71	0.077
366.93	0.074
367.15	0.117
367.37	0.111
367.58	0.114
367.80	0.103
368.02	0.121
368.23	0.123
368.45	0.106
368.67	0.099
368.88	0.076
369.10	0.066
369.32	0.037
369.53	0.011
369.75	0.037
369.97	0.037
370.19	0.003
370.40	0.005
370.62	0.010
370.84	-0.013
371.05	0.008
371.27	0.036
371.49	0.071
371.70	0.108
371.92	0.132
372.14	0.080
372.35	0.064
372.57	0.079
372.79	0.046
373.00	0.042
373.22	0.063
373.44	0.040
373.65	0.021
373.87	0.013
374.09	0.000
374.30	-0.006
374.52	0.025
374.74	0.066
374.95	0.065
375.17	0.091
375.39	0.105
375.60	0.134
375.82	0.145
376.04	0.146
376.25	0.146
376.47	0.152
376.68	0.144
376.90	0.147
377.12	0.130
377.33	0.123
377.55	0.146
377.77	0.132
377.98	0.123
378.20	0.127
378.42	0.154
378.63	0.133
378.85	0.133
379.07	0.132
379.28	0.125
379.50	0.127
379.71	0.142
379.93	0.114
380.15	0.144
380.36	0.143
380.58	0.149
380.80	0.131
381.01	0.197
381.23	0.205
381.44	0.220
381.66	0.226
381.88	0.200
382.09	0.221
382.31	0.236
382.53	0.198
382.74	0.222
382.96	0.222
383.17	0.231
383.39	0.203
383.61	0.204
383.82	0.201
384.04	0.202
384.25	0.223
384.47	0.210
384.69	0.214
384.90	0.196
385.12	0.188
385.33	0.193
385.55	0.192
385.77	0.185
385.98	0.163
386.20	0.151
386.41	0.152
386.63	0.179
386.85	0.174
387.06	0.182
387.28	0.207
387.49	0.219
387.71	0.229
387.93	0.235
388.14	0.246
388.36	0.293
388.57	0.335
388.79	0.364
389.01	0.353
389.22	0.367
389.44	0.368
389.65	0.387
389.87	0.380
390.08	0.398
390.30	0.441
390.52	0.455
390.73	0.451
390.95	0.444
391.16	0.421
391.38	0.414
391.59	0.426
391.81	0.451
392.03	0.463
392.24	0.484
392.46	0.483
392.67	0.487
392.89	0.443
393.10	0.430
393.32	0.442
393.53	0.475
393.75	0.447
393.97	0.429
394.18	0.438
394.40	0.406
394.61	0.372
394.83	0.358
395.04	0.352
395.26	0.383
395.47	0.383
395.69	0.367
395.91	0.350
396.12	0.385
396.34	0.398
396.55	0.391
396.77	0.405
396.98	0.417
397.20	0.420
397.41	0.437
397.63	0.454
397.84	0.443
398.06	0.424
398.27	0.432
398.49	0.430
398.71	0.430
398.92	0.463
399.14	0.494
399.35	0.508
399.57	0.511
399.78	0.507
400.00	0.492
400.21	0.491
400.43	0.498
400.64	0.480
400.86	0.492
401.07	0.468
401.29	0.415
401.50	0.413
401.72	0.395
401.93	0.413
402.15	0.397
402.36	0.410
402.58	0.414
402.79	0.432
403.01	0.459
403.22	0.450
403.44	0.508
403.65	0.539
403.87	0.518
404.08	0.550
404.30	0.542
404.51	0.549
404.73	0.537
404.94	0.553
405.16	0.602
405.37	0.583
405.59	0.579
405.80	0.545
406.02	0.529
406.23	0.549
406.45	0.547
406.66	0.551
406.88	0.538
407.09	0.543
407.31	0.552
407.52	0.510
407.74	0.517
407.95	0.569
408.17	0.566
408.38	0.607
408.60	0.608
408.81	0.573
409.03	0.557
409.24	0.577
409.45	0.578
409.67	0.574
409.88	0.588
410.10	0.613
410.31	0.585
410.53	0.594
410.74	0.607
410.96	0.596
411.17	0.623
411.39	0.615
411.60	0.625
411.82	0.622
412.03	0.645
412.24	0.672
412.46	0.662
412.67	0.644
412.89	0.646
413.10	0.621
413.32	0.646
413.53	0.662
413.75	0.707
413.96	0.703
414.17	0.721
414.39	0.710
414.60	0.716
414.82	0.737
415.03	0.762
415.25	0.770
415.46	0.777
415.68	0.759
415.89	0.761
416.10	0.754
416.32	0.773
416.53	0.744
416.75	0.729
416.96	0.699
417.18	0.695
417.39	0.697
417.60	0.710
417.82	0.709
418.03	0.680
418.25	0.698
418.46	0.685
418.67	0.668
418.89	0.687
419.10	0.722
419.32	0.722
419.53	0.743
419.75	0.745
419.96	0.731
420.17	0.725
420.39	0.749
420.60	0.750
420.82	0.754
421.03	0.793
421.24	0.781
421.46	0.742
421.67	0.738
421.89	0.717
422.10	0.728
422.31	0.733
422.53	0.720
422.74	0.738
422.96	0.732
423.17	0.734
423.38	0.713
423.60	0.720
423.81	0.728
424.03	0.716
424.24	0.707
424.45	0.703
424.67	0.710
424.88	0.725
425.09	0.717
425.31	0.705
425.52	0.705
425.74	0.715
425.95	0.728
426.16	0.733
426.38	0.765
426.59	0.790
426.80	0.796
427.02	0.780
427.23	0.797
427.45	0.827
427.66	0.841
427.87	0.843
428.09	0.837
428.30	0.827
428.51	0.821
428.73	0.809
428.94	0.810
429.15	0.799
429.37	0.817
429.58	0.827
429.79	0.799
430.01	0.802
430.22	0.826
430.44	0.834
430.65	0.842
430.86	0.870
431.08	0.872
431.29	0.868
431.50	0.866
431.72	0.873
431.93	0.860
432.14	0.885
432.36	0.887
432.57	0.886
432.78	0.894
433.00	0.893
433.21	0.893
433.42	0.889
433.64	0.898
433.85	0.929
434.06	0.925
434.28	0.935
434.49	0.921
434.70	0.896
434.92	0.895
435.13	0.889
435.34	0.904
435.56	0.892
435.77	0.913
435.98	0.910
436.20	0.902
436.41	0.897
436.62	0.887
436.83	0.913
437.05	0.955
437.26	0.974
437.47	0.988
437.69	1.001
437.90	1.040
438.11	1.047
438.33	1.066
438.54	1.080
438.75	1.100
438.97	1.127
439.18	1.089
439.39	1.057
439.60	1.042
439.82	1.044
440.03	1.013
440.24	0.978
440.46	0.961
440.67	0.947
440.88	0.935
441.10	0.930
441.31	0.930
441.52	0.937
441.73	0.945
441.95	0.943
442.16	0.934
442.37	0.943
442.58	0.970
442.80	0.994
443.01	0.983
443.22	0.987
443.44	1.004
443.65	1.009
443.86	1.011
444.07	1.030
444.29	1.040
444.50	1.051
444.71	1.053
444.92	1.022
445.14	1.044
445.35	1.078
445.56	1.099
445.78	1.071
445.99	1.074
446.20	1.064
446.41	1.070
446.63	1.054
446.84	1.051
447.05	1.065
447.26	1.088
447.48	1.065
447.69	1.065
447.90	1.048
448.11	1.068
448.33	1.045
448.54	1.064
448.75	1.049
448.96	1.054
449.18	1.064
449.39	1.046
449.60	1.027
449.81	1.012
450.03	0.990
450.24	0.993
450.45	0.991
450.66	0.997
450.87	1.007
451.09	1.002
451.30	1.015
451.51	0.987
451.72	0.992
451.94	1.005
452.15	1.022
452.36	1.047
452.57	1.042
452.78	1.029
453.00	1.024
453.21	1.005
453.42	1.012
453.63	0.976
453.85	0.995
454.06	1.001
454.27	1.014
454.48	1.037
454.69	1.048
454.91	1.059
455.12	1.076
455.33	1.088
455.54	1.108
455.75	1.113
455.97	1.129
456.18	1.116
456.39	1.098
456.60	1.089
456.81	1.074
457.03	1.059
457.24	1.043
457.45	1.039
457.66	1.025
457.87	1.010
458.09	1.008
458.30	1.014
458.51	1.027
458.72	1.042
458.93	1.034
459.15	1.038
459.36	1.035
459.57	1.044
459.78	1.038
459.99	1.063
460.20	1.070
460.42	1.057
460.63	1.088
460.84	1.107
461.05	1.095
461.26	1.099
461.47	1.089
461.69	1.093
461.90	1.093
462.11	1.089
462.32	1.086
462.53	1.090
462.74	1.094
462.96	1.073
463.17	1.049
463.38	1.060
463.59	1.057
463.80	1.048
464.01	1.049
464.23	1.044
464.44	1.047
464.65	1.055
464.86	1.049
465.07	1.046
465.28	1.047
465.49	1.068
465.71	1.064
465.92	1.065
466.13	1.065
466.34	1.062
466.55	1.071
466.76	1.070
466.97	1.059
467.19	1.070
467.40	1.069
467.61	1.066
467.82	1.059
468.03	1.050
468.24	1.053
468.45	1.056
468.66	1.058
468.88	1.057
469.09	1.057
469.30	1.050
469.51	1.054
469.72	1.061
469.93	1.067
470.14	1.057
470.35	1.065
470.57	1.059
470.78	1.074
470.99	1.070
471.20	1.061
471.41	1.065
471.62	1.071
471.83	1.058
472.04	1.062
472.25	1.062
472.47	1.060
472.68	1.061
472.89	1.060
473.10	1.044
473.31	1.044
473.52	1.050
473.73	1.054
473.94	1.049
474.15	1.049
474.36	1.044
474.57	1.047
474.79	1.053
475.00	1.059
475.21	1.058
475.42	1.062
475.63	1.063
475.84	1.059
476.05	1.052
476.26	1.056
476.47	1.055
476.68	1.059
476.89	1.051
477.10	1.048
477.32	1.042
477.53	1.044
477.74	1.044
477.95	1.043
478.16	1.048
478.37	1.050
478.58	1.054
478.79	1.056
479.00	1.052
479.21	1.056
479.42	1.061
479.63	1.056
479.84	1.058
480.05	1.060
480.26	1.063
480.47	1.057
480.69	1.053
480.90	1.045
481.11	1.046
481.32	1.050
481.53	1.036
481.74	1.027
481.95	1.028
482.16	1.024
482.37	1.015
482.58	1.011
482.79	1.012
483.00	1.012
483.21	1.007
483.42	0.997
483.63	0.990
483.84	0.993
484.05	0.995
484.26	0.993
484.47	0.992
484.68	0.995
484.89	0.990
485.10	0.987
485.31	0.988
485.52	0.991
485.73	0.991
485.94	0.994
486.15	0.996
486.37	0.992
486.58	0.994
486.79	0.994
487.00	0.993
487.21	0.996
487.42	0.994
487.63	0.989
487.84	0.985
488.05	0.987
488.26	0.983
488.47	0.983
488.68	0.985
488.89	0.983
489.10	0.984
489.31	0.979
489.52	0.976
489.73	0.976
489.94	0.975
490.15	0.981
490.36	0.977
490.57	0.975
490.78	0.972
490.99	0.967
491.20	0.963
491.41	0.961
491.62	0.964
491.83	0.962
492.04	0.960
492.25	0.959
492.45	0.954
492.66	0.957
492.87	0.956
493.08	0.958
493.29	0.955
493.50	0.954
493.71	0.951
493.92	0.951
494.13	0.955
494.34	0.959
494.55	0.959
494.76	0.956
494.97	0.953
495.18	0.955
495.39	0.953
495.60	0.955
495.81	0.952
496.02	0.951
496.23	0.949
496.44	0.945
496.65	0.944
496.86	0.940
497.07	0.942
497.28	0.939
497.49	0.937
497.70	0.935
497.91	0.933
498.12	0.937
498.32	0.935
498.53	0.933
498.74	0.930
498.95	0.926
499.16	0.928
499.37	0.927
499.58	0.931
499.79	0.933
500.00	0.933
500.21	0.934
500.42	0.934
500.63	0.935
500.84	0.937
501.05	0.941
501.26	0.941
501.46	0.938
501.67	0.939
501.88	0.937
502.09	0.934
502.30	0.930
502.51	0.931
502.72	0.931
502.93	0.930
503.14	0.928
503.35	0.925
503.56	0.926
503.77	0.928
503.97	0.927
504.18	0.926
504.39	0.928
504.60	0.928
504.81	0.929
505.02	0.930
505.23	0.932
505.44	0.932
505.65	0.938
505.86	0.937
506.07	0.936
506.27	0.933
506.48	0.936
506.69	0.936
506.90	0.941
507.11	0.942
507.32	0.941
507.53	0.939
507.74	0.939
507.95	0.936
508.15	0.938
508.36	0.941
508.57	0.946
508.78	0.942
508.99	0.942
509.20	0.944
509.41	0.945
509.62	0.945
509.82	0.948
510.03	0.950
510.24	0.952
510.45	0.951
510.66	0.951
510.87	0.952
511.08	0.957
511.29	0.958
511.49	0.954
511.70	0.954
511.91	0.954
512.12	0.955
512.33	0.955
512.54	0.956
512.75	0.958
512.95	0.958
513.16	0.957
513.37	0.956
513.58	0.956
513.79	0.959
514.00	0.960
514.20	0.961
514.41	0.961
514.62	0.963
514.83	0.962
515.04	0.963
515.25	0.964
515.46	0.966
515.66	0.967
515.87	0.968
516.08	0.970
516.29	0.970
516.50	0.970
516.71	0.970
516.91	0.970
517.12	0.973
517.33	0.976
517.54	0.978
517.75	0.978
517.95	0.978
518.16	0.981
518.37	0.982
518.58	0.983
518.79	0.986
519.00	0.989
519.20	0.991
519.41	0.992
519.62	0.991
519.83	0.992
520.04	0.990
520.24	0.991
520.45	0.989
520.66	0.989
520.87	0.987
521.08	0.987
521.28	0.986
521.49	0.985
521.70	0.985
521.91	0.985
522.12	0.983
522.32	0.986
522.53	0.984
522.74	0.985
522.95	0.984
523.16	0.985
523.36	0.981
523.57	0.980
523.78	0.981
523.99	0.980
524.20	0.979
524.40	0.979
524.61	0.975
524.82	0.975
525.03	0.976
525.23	0.977
525.44	0.976
525.65	0.978
525.86	0.979
526.06	0.975
526.27	0.973
526.48	0.973
526.69	0.970
526.90	0.971
527.10	0.971
527.31	0.970
527.52	0.969
527.73	0.965
527.93	0.965
528.14	0.963
528.35	0.963
528.56	0.962
528.76	0.961
528.97	0.960
529.18	0.959
529.39	0.956
529.59	0.954
529.80	0.952
530.01	0.952
530.22	0.950
530.42	0.946
530.63	0.945
530.84	0.944
531.05	0.943
531.25	0.942
531.46	0.940
531.67	0.938
531.88	0.938
532.08	0.935
532.29	0.936
532.50	0.934
532.70	0.934
532.91	0.932
533.12	0.927
533.33	0.925
533.53	0.921
533.74	0.920
533.95	0.918
534.15	0.914
534.36	0.911
534.57	0.908
534.78	0.904
534.98	0.902
535.19	0.900
535.40	0.898
535.60	0.897
535.81	0.894
536.02	0.892
536.23	0.888
536.43	0.887
536.64	0.883
536.85	0.881
537.05	0.878
537.26	0.875
537.47	0.871
537.67	0.869
537.88	0.865
538.09	0.863
538.30	0.862
538.50	0.859
538.71	0.855
538.92	0.854
539.12	0.852
539.33	0.848
539.54	0.845
539.74	0.844
539.95	0.842
540.16	0.840
540.36	0.836
540.57	0.833
540.78	0.832
540.98	0.829
541.19	0.827
541.40	0.823
541.60	0.822
541.81	0.821
542.02	0.818
542.22	0.814
542.43	0.811
542.64	0.808
542.84	0.805
543.05	0.803
543.26	0.801
543.46	0.798
543.67	0.797
543.88	0.794
544.08	0.792
544.29	0.789
544.50	0.787
544.70	0.785
544.91	0.782
545.12	0.779
545.32	0.775
545.53	0.772
545.74	0.768
545.94	0.764
546.15	0.760
546.35	0.756
546.56	0.753
546.77	0.750
546.97	0.745
547.18	0.741
547.39	0.739
547.59	0.736
547.80	0.733
548.01	0.731
548.21	0.728
548.42	0.726
548.62	0.723
548.83	0.721
549.04	0.717
549.24	0.716
549.45	0.713
549.65	0.712
549.86	0.710
550.07	0.705
550.27	0.702
550.48	0.700
550.69	0.697
550.89	0.693
551.10	0.690
551.30	0.687
551.51	0.684
551.72	0.681
551.92	0.677
552.13	0.673
552.33	0.671
552.54	0.666
552.75	0.663
552.95	0.659
553.16	0.657
553.36	0.653
553.57	0.649
553.78	0.645
553.98	0.641
554.19	0.638
554.39	0.634
554.60	0.631
554.80	0.627
555.01	0.624
555.22	0.621
555.42	0.617
555.63	0.614
555.83	0.611
556.04	0.609
556.25	0.606
556.45	0.602
556.66	0.598
556.86	0.595
557.07	0.592
557.27	0.588
557.48	0.584
557.68	0.581
557.89	0.577
558.10	0.574
558.30	0.570
558.51	0.565
558.71	0.562
558.92	0.559
559.12	0.555
559.33	0.551
559.54	0.548
559.74	0.544
559.95	0.540
560.15	0.537
560.36	0.534
560.56	0.530
560.77	0.527
560.97	0.523
561.18	0.520
561.38	0.516
561.59	0.513
561.79	0.509
562.00	0.505
562.21	0.501
562.41	0.498
562.62	0.494
562.82	0.490
563.03	0.486
563.23	0.482
563.44	0.478
563.64	0.473
563.85	0.470
564.05	0.466
564.26	0.463
564.46	0.460
564.67	0.456
564.87	0.453
565.08	0.449
565.28	0.445
565.49	0.441
565.69	0.437
565.90	0.434
566.10	0.430
566.31	0.426
566.51	0.422
566.72	0.418
566.92	0.414
567.13	0.410
567.33	0.406
567.54	0.402
567.74	0.399
567.95	0.396
568.15	0.392
568.36	0.388
568.56	0.384
568.77	0.381
568.97	0.377
569.18	0.374
569.38	0.370
569.59	0.366
569.79	0.363
570.00	0.359
570.20	0.355
570.41	0.352
570.61	0.350
570.82	0.347
571.02	0.343
571.23	0.339
571.43	0.336
571.64	0.333
571.84	0.330
572.05	0.327
572.25	0.325
572.45	0.322
572.66	0.318
572.86	0.315
573.07	0.312
573.27	0.309
573.48	0.306
573.68	0.303
573.89	0.299
574.09	0.296
574.30	0.292
574.50	0.289
574.70	0.285
574.91	0.283
575.11	0.280
575.32	0.277
575.52	0.273
575.73	0.271
575.93	0.268
576.14	0.265
576.34	0.262
576.54	0.259
576.75	0.257
576.95	0.255
577.16	0.252
577.36	0.250
577.57	0.247
577.77	0.244
577.97	0.241
578.18	0.238
578.38	0.235
578.59	0.233
578.79	0.231
579.00	0.228
579.20	0.225
579.40	0.222
579.61	0.220
579.81	0.218
580.02	0.216
580.22	0.214
580.42	0.212
580.63	0.210
580.83	0.207
581.04	0.205
581.24	0.202
581.45	0.200
581.65	0.198
581.85	0.195
582.06	0.192
582.26	0.190
582.47	0.188
582.67	0.186
582.87	0.183
583.08	0.182
583.28	0.179
583.48	0.177
583.69	0.175
583.89	0.173
584.10	0.171
584.30	0.170
584.50	0.168
584.71	0.166
584.91	0.164
585.12	0.162
585.32	0.160
585.52	0.159
585.73	0.157
585.93	0.155
586.13	0.152
586.34	0.150
586.54	0.149
586.75	0.147
586.95	0.146
587.15	0.144
587.36	0.142
587.56	0.140
587.76	0.138
587.97	0.137
588.17	0.135
588.37	0.134
588.58	0.132
588.78	0.131
588.98	0.129
589.19	0.128
589.39	0.126
589.60	0.125
589.80	0.123
590.00	0.122
590.21	0.121
590.41	0.119
590.61	0.118
590.82	0.116
591.02	0.114
591.22	0.113
591.43	0.112
591.63	0.110
591.83	0.109
592.04	0.107
592.24	0.106
592.44	0.105
592.65	0.104
592.85	0.103
593.05	0.101
593.26	0.100
593.46	0.099
593.66	0.097
593.86	0.096
594.07	0.094
594.27	0.093
594.47	0.092
594.68	0.091
594.88	0.090
595.08	0.088
595.29	0.087
595.49	0.086
595.69	0.085
595.90	0.084
596.10	0.083
596.30	0.082
596.50	0.081
596.71	0.080
596.91	0.079
597.11	0.078
597.32	0.077
597.52	0.076
597.72	0.075
597.93	0.075
598.13	0.074
598.33	0.073
598.53	0.071
598.74	0.070
598.94	0.070
599.14	0.069
599.35	0.068
599.55	0.067
599.75	0.066
599.95	0.066
600.16	0.065
600.36	0.064
600.56	0.063
600.76	0.063
600.97	0.063
601.17	0.062
601.37	0.060
601.58	0.060
601.78	0.059
601.98	0.058
602.18	0.057
602.39	0.057
602.59	0.056
602.79	0.055
602.99	0.054
603.20	0.053
603.40	0.052
603.60	0.052
603.80	0.052
604.01	0.051
604.21	0.051
604.41	0.050
604.61	0.049
604.82	0.049
605.02	0.049
605.22	0.048
605.42	0.048
605.62	0.048
605.83	0.047
606.03	0.046
606.23	0.046
606.43	0.045
606.64	0.045
606.84	0.044
607.04	0.044
607.24	0.043
607.45	0.043
607.65	0.042
607.85	0.041
608.05	0.041
608.25	0.041
608.46	0.041
608.66	0.041
608.86	0.040
609.06	0.040
609.26	0.040
609.47	0.040
609.67	0.040
609.87	0.039
610.07	0.039
610.28	0.039
610.48	0.039
610.68	0.038
610.88	0.038
611.08	0.037
611.29	0.037
611.49	0.036
611.69	0.036
611.89	0.035
612.09	0.035
612.29	0.034
612.50	0.034
612.70	0.034
612.90	0.034
613.10	0.034
613.30	0.034
613.51	0.034
613.71	0.033
613.91	0.033
614.11	0.033
614.31	0.033
614.51	0.033
614.72	0.032
614.92	0.032
615.12	0.032
615.32	0.032
615.52	0.032
615.72	0.032
615.93	0.031
616.13	0.030
616.33	0.030
616.53	0.031
616.73	0.030
616.93	0.030
617.14	0.029
617.34	0.030
617.54	0.030
617.74	0.029
617.94	0.029
618.14	0.030
618.34	0.030
618.55	0.030
618.75	0.029
618.95	0.030
619.15	0.030
619.35	0.029
619.55	0.029
619.75	0.029
619.96	0.029
620.16	0.029
620.36	0.028
620.56	0.028
620.76	0.027
620.96	0.027
621.16	0.027
621.36	0.027
621.57	0.027
621.77	0.027
621.97	0.027
622.17	0.027
622.37	0.027
622.57	0.027
622.77	0.027
622.97	0.027
623.18	0.027
623.38	0.027
623.58	0.027
623.78	0.027
623.98	0.027
624.18	0.027
624.38	0.027
624.58	0.027
624.78	0.027
624.98	0.027
625.19	0.027
625.39	0.027
625.59	0.027
625.79	0.026
625.99	0.026
626.19	0.026
626.39	0.026
626.59	0.026
626.79	0.026
626.99	0.025
627.19	0.025
627.40	0.026
627.60	0.025
627.80	0.025
628.00	0.025
628.20	0.025
628.40	0.025
628.60	0.025
628.80	0.025
629.00	0.024
629.20	0.024
629.40	0.024
629.60	0.024
629.80	0.024
630.00	0.024
630.20	0.024
630.41	0.025
630.61	0.024
630.81	0.024
631.01	0.024
631.21	0.024
631.41	0.024
631.61	0.024
631.81	0.024
632.01	0.025
632.21	0.024
632.41	0.024
632.61	0.024
632.81	0.025
633.01	0.024
633.21	0.025
633.41	0.024
633.61	0.024
633.81	0.024
634.01	0.024
634.21	0.024
634.41	0.024
634.61	0.024
634.81	0.023
635.01	0.023
635.22	0.024
635.42	0.024
635.62	0.024
635.82	0.024
636.02	0.024
636.22	0.024
636.42	0.024
636.62	0.024
636.82	0.024
637.02	0.024
637.22	0.024
637.42	0.024
637.62	0.024
637.82	0.024
638.02	0.024
638.22	0.024
638.42	0.024
638.62	0.024
638.82	0.023
639.02	0.023
639.22	0.023
639.42	0.023
639.62	0.023
639.82	0.023
640.02	0.023
640.22	0.023
640.42	0.023
640.62	0.023
640.82	0.023
641.02	0.023
641.22	0.023
641.42	0.023
641.61	0.023
641.81	0.024
642.01	0.024
642.21	0.024
642.41	0.024
642.61	0.024
642.81	0.024
643.01	0.024
643.21	0.024
643.41	0.024
643.61	0.024
643.81	0.024
644.01	0.023
644.21	0.023
644.41	0.023
644.61	0.023
644.81	0.023
645.01	0.023
645.21	0.023
645.41	0.023
645.61	0.023
645.81	0.023
646.01	0.023
646.21	0.023
646.40	0.023
646.60	0.023
646.80	0.024
647.00	0.024
647.20	0.023
647.40	0.023
647.60	0.023
647.80	0.023
648.00	0.024
648.20	0.023
648.40	0.023
648.60	0.023
648.80	0.023
649.00	0.023
649.20	0.023
649.39	0.023
649.59	0.023
649.79	0.023
649.99	0.023
650.19	0.023
650.39	0.023
650.59	0.023
650.79	0.023
650.99	0.023
651.19	0.023
651.39	0.023
651.58	0.023
651.78	0.023
651.98	0.023
652.18	0.023
652.38	0.023
652.58	0.023
652.78	0.023
652.98	0.023
653.18	0.023
653.38	0.023
653.57	0.023
653.77	0.023
653.97	0.023
654.17	0.023
654.37	0.023
654.57	0.023
654.77	0.023
654.97	0.023
655.16	0.023
655.36	0.023
655.56	0.023
655.76	0.023
655.96	0.023
656.16	0.023
656.36	0.023
656.56	0.023
656.75	0.022
656.95	0.022
657.15	0.022
657.35	0.022
657.55	0.022
657.75	0.022
657.95	0.022
658.14	0.022
658.34	0.021
658.54	0.021
658.74	0.021
658.94	0.021
659.14	0.022
659.34	0.022
659.53	0.022
659.73	0.022
659.93	0.021
660.13	0.022
660.33	0.022
660.53	0.022
660.72	0.022
660.92	0.022
661.12	0.022
661.32	0.021
661.52	0.021
661.72	0.021
661.91	0.021
662.11	0.021
662.31	0.021
662.51	0.021
662.71	0.021
662.90	0.021
663.10	0.022
663.30	0.022
663.50	0.022
663.70	0.022
663.90	0.022
664.09	0.022
664.29	0.022
664.49	0.022
664.69	0.022
664.89	0.022
665.08	0.022
665.28	0.022
665.48	0.022
665.68	0.022
665.88	0.022
666.07	0.022
666.27	0.022
666.47	0.021
666.67	0.021
666.87	0.021
667.06	0.021
667.26	0.021
667.46	0.021
667.66	0.021
667.85	0.022
668.05	0.021
668.25	0.022
668.45	0.022
668.65	0.022
668.84	0.022
669.04	0.022
669.24	0.021
669.44	0.021
669.63	0.021
669.83	0.021
670.03	0.021
670.23	0.021
670.42	0.021
670.62	0.021
670.82	0.021
671.02	0.021
671.22	0.021
671.41	0.021
671.61	0.021
671.81	0.021
672.01	0.021
672.20	0.021
672.40	0.021
672.60	0.021
672.80	0.021
672.99	0.021
673.19	0.021
673.39	0.021
673.58	0.021
673.78	0.022
673.98	0.022
674.18	0.021
674.37	0.021
674.57	0.021
674.77	0.021
674.97	0.021
675.16	0.020
675.36	0.020
675.56	0.020
675.75	0.020
675.95	0.020
676.15	0.020
676.35	0.020
676.54	0.020
676.74	0.020
676.94	0.021
677.13	0.021
677.33	0.021
677.53	0.021
677.73	0.021
677.92	0.021
678.12	0.021
678.32	0.021
678.51	0.021
678.71	0.021
678.91	0.021
679.11	0.021
679.30	0.021
679.50	0.021
679.70	0.020
679.89	0.021
680.09	0.021
680.29	0.021
680.48	0.021
680.68	0.021
680.88	0.021
681.07	0.021
681.27	0.021
681.47	0.021
681.66	0.021
681.86	0.021
682.06	0.021
682.25	0.021
682.45	0.021
682.65	0.021
682.84	0.021
683.04	0.021
683.24	0.021
683.43	0.021
683.63	0.021
683.83	0.021
684.02	0.021
684.22	0.021
684.42	0.021
684.61	0.021
684.81	0.021
685.01	0.021
685.20	0.021
685.40	0.021
685.60	0.021
685.79	0.021
685.99	0.021
686.19	0.021
686.38	0.021
686.58	0.021
686.77	0.021
686.97	0.021
687.17	0.021
687.36	0.021
687.56	0.021
687.76	0.021
687.95	0.021
688.15	0.021
688.34	0.020
688.54	0.020
688.74	0.020
688.93	0.020
689.13	0.021
689.33	0.021
689.52	0.021
689.72	0.020
689.91	0.020
690.11	0.020
690.31	0.020
690.50	0.021
690.70	0.020
690.89	0.020
691.09	0.020
691.29	0.020
691.48	0.020
691.68	0.020
691.87	0.021
692.07	0.021
692.27	0.021
692.46	0.021
692.66	0.021
692.85	0.021
693.05	0.021
693.25	0.021
693.44	0.021
693.64	0.020
693.83	0.020
694.03	0.020
694.22	0.020
694.42	0.021
694.62	0.021
694.81	0.021
695.01	0.020
695.20	0.020
695.40	0.020
695.59	0.020
695.79	0.020
695.99	0.020
696.18	0.020
696.38	0.020
696.57	0.020
696.77	0.020
696.96	0.020
697.16	0.020
697.36	0.020
697.55	0.020
697.75	0.021
697.94	0.021
698.14	0.020
698.33	0.021
698.53	0.021
698.72	0.021
698.92	0.020
699.11	0.020
699.31	0.020
699.51	0.020
699.70	0.021
699.90	0.021
700.09	0.020
700.29	0.021
700.48	0.021
700.68	0.021
700.87	0.020
701.07	0.020
701.26	0.021
701.46	0.020
701.65	0.020
701.85	0.020
702.04	0.020
702.24	0.020
702.43	0.020
702.63	0.020
702.82	0.020
703.02	0.020
703.21	0.020
703.41	0.020
703.60	0.019
703.80	0.020
703.99	0.020
704.19	0.020
704.38	0.019
704.58	0.019
704.77	0.019
704.97	0.019
705.16	0.019
705.36	0.019
705.55	0.019
705.75	0.019
705.94	0.019
706.14	0.019
706.33	0.019
706.53	0.019
706.72	0.019
706.92	0.019
707.11	0.019
707.31	0.019
707.50	0.019
707.70	0.019
707.89	0.019
708.09	0.020
708.28	0.020
708.48	0.020
708.67	0.020
708.86	0.019
709.06	0.019
709.25	0.019
709.45	0.019
709.64	0.019
709.84	0.019
710.03	0.019
710.23	0.019
710.42	0.019
710.62	0.019
710.81	0.019
711.00	0.019
711.20	0.019
711.39	0.019
711.59	0.019
711.78	0.019
711.98	0.019
712.17	0.019
712.37	0.019
712.56	0.019
712.75	0.019
712.95	0.019
713.14	0.019
713.34	0.019
713.53	0.019
713.73	0.019
713.92	0.019
714.11	0.019
714.31	0.019
714.50	0.018
714.70	0.018
714.89	0.018
715.08	0.018
715.28	0.018
715.47	0.018
715.67	0.019
715.86	0.018
716.06	0.018
716.25	0.018
716.44	0.018
716.64	0.018
716.83	0.018
717.03	0.018
717.22	0.017
717.41	0.017
717.61	0.017
717.80	0.017
717.99	0.017
718.19	0.017
718.38	0.017
718.58	0.016
718.77	0.016
718.96	0.017
719.16	0.017
719.35	0.017
719.55	0.017
719.74	0.017
719.93	0.018
720.13	0.018
720.32	0.018
720.51	0.018
720.71	0.018
720.90	0.017
721.10	0.017
721.29	0.017
721.48	0.017
721.68	0.017
721.87	0.017
722.06	0.016
722.26	0.016
722.45	0.016
722.64	0.016
722.84	0.016
723.03	0.016
723.22	0.016
723.42	0.016
723.61	0.016
723.80	0.016
724.00	0.016
724.19	0.016
724.38	0.016
724.58	0.016
724.77	0.016
724.96	0.016
725.16	0.016
725.35	0.016
725.54	0.016
725.74	0.016
725.93	0.015
726.12	0.015
726.32	0.015
726.51	0.015
726.70	0.015
726.90	0.015
727.09	0.015
727.28	0.014
727.48	0.014
727.67	0.015
727.86	0.014
728.06	0.015
728.25	0.015
728.44	0.014
728.64	0.014
728.83	0.014
729.02	0.014
729.21	0.014
729.41	0.014
729.60	0.014
729.79	0.014
729.99	0.014
730.18	0.014
730.37	0.013
730.56	0.013
730.76	0.013
730.95	0.013
731.14	0.013
731.34	0.013
731.53	0.013
731.72	0.013
731.91	0.013
732.11	0.013
732.30	0.013
732.49	0.013
732.69	0.013
732.88	0.013
733.07	0.013
733.26	0.013
733.46	0.013
733.65	0.013
733.84	0.013
734.03	0.012
734.23	0.012
734.42	0.012
734.61	0.012
734.80	0.012
735.00	0.012
735.19	0.012
735.38	0.012
735.57	0.012
735.77	0.012
735.96	0.012
736.15	0.012
736.34	0.012
736.54	0.012
736.73	0.012
736.92	0.011
737.11	0.011
737.31	0.011
737.50	0.011
737.69	0.012
737.88	0.011
738.07	0.012
738.27	0.012
738.46	0.012
738.65	0.012
738.84	0.012
739.04	0.012
739.23	0.012
739.42	0.012
739.61	0.012
739.80	0.011
740.00	0.011
740.19	0.011
740.38	0.011
740.57	0.011
740.76	0.011
740.96	0.011
741.15	0.011
741.34	0.012
741.53	0.011
741.72	0.012
741.92	0.011
742.11	0.012
742.30	0.012
742.49	0.012
742.68	0.011
742.88	0.012
743.07	0.012
743.26	0.011
743.45	0.011
743.64	0.011
743.84	0.011
744.03	0.012
744.22	0.012
744.41	0.011
744.60	0.012
744.79	0.012
744.99	0.012
745.18	0.012
745.37	0.012
745.56	0.012
745.75	0.012
745.94	0.012
746.14	0.012
746.33	0.012
746.52	0.013
746.71	0.012
746.90	0.012
747.09	0.012
747.28	0.012
747.48	0.013
747.67	0.013
747.86	0.012
748.05	0.013
748.24	0.012
748.43	0.012
748.62	0.013
748.82	0.013
749.01	0.013
749.20	0.013
749.39	0.013
749.58	0.013
749.77	0.013
749.96	0.013
750.16	0.013
750.35	0.013
750.54	0.013
750.73	0.013
750.92	0.013
751.11	0.013
751.30	0.013
751.49	0.013
751.68	0.013
751.88	0.013
752.07	0.013
752.26	0.013
752.45	0.013
752.64	0.013
752.83	0.013
753.02	0.013
753.21	0.013
753.40	0.013
753.60	0.013
753.79	0.013
753.98	0.013
754.17	0.014
754.36	0.013
754.55	0.014
754.74	0.014
754.93	0.014
755.12	0.014
755.31	0.014
755.50	0.014
755.70	0.014
755.89	0.014
756.08	0.014
756.27	0.015
756.46	0.015
756.65	0.015
756.84	0.015
757.03	0.015
757.22	0.015
757.41	0.015
757.60	0.016
757.79	0.016
757.98	0.016
758.17	0.015
758.36	0.015
758.56	0.015
758.75	0.015
758.94	0.015
759.13	0.015
759.32	0.015
759.51	0.015
759.70	0.015
759.89	0.015
760.08	0.015
760.27	0.015
760.46	0.015
760.65	0.015
760.84	0.015
761.03	0.015
761.22	0.015
761.41	0.015
761.60	0.015
761.79	0.015
761.98	0.015
762.17	0.015
762.36	0.015
762.55	0.015
762.74	0.015
762.93	0.015
763.12	0.015
763.31	0.015
763.50	0.015
763.69	0.015
763.88	0.015
764.07	0.015
764.26	0.014
764.45	0.014
764.64	0.014
764.83	0.014
765.02	0.014
765.21	0.014
765.40	0.014
765.59	0.014
765.78	0.013
765.97	0.013
766.16	0.013
766.35	0.014
766.54	0.014
766.73	0.014
766.92	0.014
767.11	0.014
767.30	0.014
767.49	0.014
767.68	0.014
767.87	0.014
768.06	0.013
768.25	0.013
768.44	0.013
768.63	0.013
768.82	0.012
769.01	0.012
769.20	0.012
769.39	0.012
769.58	0.012
769.77	0.012
769.96	0.012
770.15	0.012
770.34	0.012
770.53	0.012
770.72	0.012
770.91	0.012
771.10	0.012
771.29	0.012
771.47	0.012
771.66	0.012
771.85	0.012
772.04	0.011
772.23	0.011
772.42	0.011
772.61	0.011
772.80	0.011
772.99	0.011
773.18	0.011
773.37	0.011
773.56	0.011
773.75	0.010
773.94	0.011
774.13	0.011
774.31	0.011
774.50	0.011
774.69	0.011
774.88	0.011
775.07	0.011
775.26	0.011
775.45	0.011
775.64	0.011
775.83	0.011
776.02	0.011
776.21	0.011
776.40	0.011
776.58	0.011
776.77	0.011
776.96	0.011
777.15	0.011
777.34	0.011
777.53	0.011
777.72	0.011
777.91	0.011
778.10	0.011
778.28	0.011
778.47	0.011
778.66	0.011
778.85	0.011
779.04	0.011
779.23	0.011
779.42	0.011
779.61	0.011
779.79	0.011
779.98	0.010
780.17	0.010
780.36	0.010
780.55	0.011
780.74	0.011
780.93	0.011
781.12	0.011
781.30	0.011
781.49	0.011
781.68	0.011
781.87	0.011
782.06	0.011
782.25	0.011
782.44	0.011
782.62	0.011
782.81	0.011
783.00	0.011
783.19	0.010
783.38	0.010
783.57	0.011
783.75	0.011
783.94	0.011
784.13	0.011
784.32	0.011
784.51	0.011
784.70	0.011
784.88	0.011
785.07	0.011
785.26	0.011
785.45	0.011
785.64	0.011
785.83	0.011
786.01	0.011
786.20	0.011
786.39	0.011
786.58	0.011
786.77	0.011
786.95	0.010
787.14	0.010
787.33	0.010
787.52	0.010
787.71	0.010
787.90	0.011
788.08	0.010
788.27	0.010
788.46	0.011
788.65	0.011
788.84	0.011
789.02	0.011
789.21	0.011
789.40	0.011
789.59	0.011
789.77	0.011
789.96	0.012
790.15	0.012
790.34	0.012
790.53	0.012
790.71	0.012
790.90	0.012
791.09	0.012
791.28	0.012
791.46	0.012
791.65	0.012
791.84	0.012
792.03	0.012
792.22	0.012
792.40	0.012
792.59	0.012
792.78	0.012
792.97	0.012
793.15	0.013
793.34	0.013
793.53	0.013
793.72	0.013
793.90	0.013
794.09	0.013
794.28	0.013
794.47	0.013
794.65	0.013
794.84	0.013
795.03	0.013
795.22	0.012
795.40	0.012
795.59	0.013
795.78	0.013
795.97	0.013
796.15	0.013
796.34	0.012
796.53	0.013
796.71	0.013
796.90	0.013
797.09	0.013
797.28	0.013
797.46	0.013
797.65	0.013
797.84	0.013
798.02	0.013
798.21	0.013
798.40	0.013
798.59	0.013
798.77	0.013
798.96	0.013
799.15	0.013
799.33	0.013
799.52	0.013
799.71	0.013
799.90	0.013
800.08	0.013
800.27	0.013
800.46	0.013
800.64	0.013
800.83	0.013
801.02	0.013
801.20	0.013
801.39	0.013
801.58	0.013
801.76	0.012
801.95	0.012
802.14	0.013
802.32	0.013
802.51	0.013
802.70	0.013
802.88	0.013
803.07	0.013
803.26	0.013
803.44	0.013
803.63	0.012
803.82	0.012
804.00	0.012
804.19	0.012
804.38	0.012
804.56	0.012
804.75	0.012
804.94	0.012
805.12	0.012
805.31	0.013
805.50	0.013
805.68	0.013
805.87	0.013
806.06	0.013
806.24	0.014
806.43	0.014
806.62	0.014
806.80	0.014
806.99	0.014
807.17	0.014
807.36	0.014
807.55	0.014
807.73	0.014
807.92	0.014
808.11	0.014
808.29	0.014
808.48	0.013
808.66	0.013
808.85	0.013
809.04	0.013
809.22	0.013
809.41	0.014
809.59	0.014
809.78	0.014
809.97	0.014
810.15	0.013
810.34	0.013
810.53	0.014
810.71	0.014
810.90	0.014
811.08	0.013
811.27	0.014
811.45	0.013
811.64	0.013
811.83	0.013
812.01	0.013
812.20	0.013
812.38	0.013
812.57	0.013
812.76	0.013
812.94	0.013
813.13	0.013
813.31	0.013
813.50	0.013
813.68	0.013
813.87	0.013
814.06	0.013
814.24	0.013
814.43	0.013
814.61	0.013
814.80	0.013
814.98	0.013
815.17	0.013
815.36	0.014
815.54	0.014
815.73	0.014
815.91	0.014
816.10	0.014
816.28	0.013
816.47	0.013
816.65	0.013
816.84	0.013
817.03	0.013
817.21	0.013
817.40	0.013
817.58	0.012
817.77	0.013
817.95	0.013
818.14	0.013
818.32	0.013
818.51	0.013
818.69	0.013
818.88	0.013
819.06	0.013
819.25	0.014
819.43	0.014
819.62	0.014
819.80	0.014
819.99	0.014
820.18	0.014
820.36	0.014
820.55	0.014
820.73	0.014
820.92	0.014
821.10	0.014
821.29	0.014
821.47	0.013
821.66	0.013
821.84	0.013
822.03	0.013
822.21	0.013
822.40	0.013
822.58	0.013
822.77	0.013
822.95	0.013
823.14	0.013
823.32	0.013
823.50	0.013
823.69	0.013
823.87	0.013
824.06	0.013
824.24	0.013
824.43	0.013
824.61	0.012
824.80	0.013
824.98	0.012
825.17	0.012
825.35	0.012
825.54	0.012
825.72	0.012
825.91	0.011
826.09	0.012
826.28	0.012
826.46	0.011
826.64	0.011
826.83	0.011
827.01	0.011
827.20	0.011
827.38	0.012
827.57	0.011
827.75	0.011
827.94	0.011
828.12	0.011
828.31	0.011
828.49	0.011
828.67	0.010
828.86	0.010
829.04	0.010
829.23	0.010
829.41	0.010
829.60	0.009
829.78	0.010
829.96	0.009
830.15	0.009
830.33	0.009
830.52	0.009
830.70	0.010
830.88	0.010
831.07	0.010
831.25	0.009
831.44	0.009
831.62	0.009
831.81	0.009
831.99	0.009
832.17	0.009
832.36	0.009
832.54	0.008
832.73	0.008
832.91	0.008
833.09	0.008
833.28	0.008
833.46	0.008
833.65	0.008
833.83	0.008
834.01	0.008
834.20	0.008
834.38	0.008
834.56	0.008
834.75	0.008
834.93	0.008
835.12	0.008
835.30	0.008
835.48	0.008
835.67	0.007
835.85	0.007
836.03	0.007
836.22	0.007
836.40	0.007
836.59	0.007
836.77	0.007
836.95	0.007
837.14	0.007
837.32	0.007
837.50	0.008
837.69	0.008
837.87	0.008
838.05	0.008
838.24	0.009
838.42	0.008
838.60	0.008
838.79	0.008
838.97	0.008
839.15	0.008
839.34	0.008
839.52	0.007
839.70	0.007
839.89	0.007
840.07	0.007
840.25	0.007
840.44	0.007
840.62	0.007
840.80	0.007
840.99	0.007
841.17	0.007
841.35	0.007
841.54	0.007
841.72	0.006
841.90	0.007
842.09	0.007
842.27	0.006
842.45	0.006
842.64	0.006
842.82	0.006
843.00	0.006
843.19	0.006
843.37	0.006
843.55	0.006
843.73	0.006
843.92	0.006
844.10	0.006
844.28	0.006
844.47	0.005
844.65	0.006
844.83	0.006
845.01	0.006
845.20	0.006
845.38	0.006
845.56	0.006
845.75	0.006
845.93	0.006
846.11	0.006
846.29	0.007
846.48	0.007
846.66	0.006
846.84	0.006
847.02	0.007
847.21	0.006
847.39	0.006
847.57	0.006
847.76	0.006
847.94	0.006
848.12	0.006
848.30	0.006
848.49	0.006
848.67	0.006
848.85	0.006
849.03	0.006
849.22	0.006
849.40	0.006
849.58	0.006
849.76	0.006
849.95	0.006
850.13	0.006
850.31	0.006
850.49	0.007
850.67	0.006
850.86	0.006
851.04	0.006
851.22	0.007
851.40	0.006
851.59	0.006
851.77	0.006
851.95	0.006
852.13	0.006
852.31	0.006
852.50	0.005
852.68	0.006
852.86	0.005
853.04	0.005
853.23	0.005
853.41	0.005
853.59	0.005
853.77	0.005
853.95	0.005
854.14	0.005
854.32	0.005
854.50	0.005
854.68	0.005
854.86	0.005
855.04	0.005
855.23	0.005
855.41	0.005
855.59	0.005
855.77	0.005
855.95	0.004
856.14	0.004
856.32	0.004
856.50	0.004
856.68	0.004
856.86	0.004
857.04	0.003
857.23	0.003
857.41	0.003
857.59	0.003
857.77	0.003
857.95	0.003
858.13	0.004
858.32	0.004
858.50	0.004
858.68	0.004
858.86	0.004
859.04	0.004
859.22	0.004
859.41	0.004
859.59	0.004
859.77	0.004
859.95	0.004
860.13	0.004
860.31	0.004
860.49	0.004
860.68	0.004
860.86	0.005
861.04	0.005
861.22	0.004
861.40	0.004
861.58	0.005
861.76	0.005
861.94	0.005
862.13	0.005
862.31	0.005
862.49	0.005
862.67	0.005
862.85	0.005
863.03	0.005
863.21	0.005
863.39	0.005
863.57	0.004
863.76	0.004
863.94	0.004
864.12	0.004
864.30	0.004
864.48	0.004
864.66	0.004
864.84	0.004
865.02	0.004
865.20	0.004
865.38	0.004
865.57	0.004
865.75	0.005
865.93	0.005
866.11	0.004
866.29	0.004
866.47	0.004
866.65	0.004
866.83	0.005
867.01	0.005
867.19	0.005
867.37	0.005
867.55	0.005
867.73	0.005
867.92	0.005
868.10	0.005
868.28	0.005
868.46	0.005
868.64	0.006
868.82	0.006
869.00	0.006
869.18	0.006
869.36	0.006
869.54	0.006
869.72	0.007
869.90	0.006
870.08	0.006
870.26	0.007
870.44	0.007
870.62	0.007
870.80	0.007
870.98	0.007
871.16	0.007
871.34	0.008
871.53	0.008
871.71	0.007
871.89	0.007
872.07	0.008
872.25	0.008
872.43	0.007
872.61	0.007
872.79	0.007
872.97	0.007
873.15	0.007
873.33	0.007
873.51	0.008
873.69	0.008
873.87	0.008
874.05	0.008
874.23	0.008
874.41	0.008
874.59	0.008
874.77	0.008
874.95	0.009
875.13	0.009
875.31	0.009
875.49	0.008
875.67	0.008
875.85	0.008
876.03	0.008
876.21	0.008
876.39	0.008
876.57	0.008
876.75	0.008
876.93	0.007
877.11	0.007
877.29	0.007
877.47	0.007
877.65	0.007
877.82	0.007
878.00	0.007
878.18	0.008
878.36	0.008
878.54	0.007
878.72	0.007
878.90	0.008
879.08	0.008
879.26	0.008
879.44	0.008
879.62	0.008
879.80	0.008
879.98	0.007
880.16	0.007
880.34	0.007
880.52	0.007
880.70	0.008
880.88	0.008
881.06	0.007
881.24	0.007
881.42	0.007
881.59	0.007
881.77	0.007
881.95	0.007
882.13	0.007
882.31	0.006
882.49	0.006
882.67	0.006
882.85	0.006
883.03	0.006
883.21	0.006
883.39	0.006
883.57	0.006
883.75	0.007
883.92	0.006
884.10	0.006
884.28	0.006
884.46	0.006
884.64	0.006
884.82	0.006
885.00	0.006
885.18	0.005
885.36	0.005
885.54	0.005
885.71	0.005
885.89	0.006
886.07	0.006
886.25	0.006
886.43	0.006
886.61	0.006
886.79	0.006
886.97	0.006
887.15	0.006
887.32	0.007
887.50	0.007
887.68	0.007
887.86	0.007
888.04	0.007
888.22	0.007
888.40	0.007
888.57	0.007
888.75	0.007
888.93	0.007
889.11	0.006
889.29	0.006
889.47	0.007
889.65	0.007
889.82	0.007
890.00	0.007
890.18	0.007
890.36	0.007
890.54	0.007
890.72	0.007
890.90	0.007
891.07	0.007
891.25	0.007
891.43	0.007
891.61	0.007
891.79	0.007
891.97	0.008
892.14	0.007
892.32	0.008
892.50	0.008
892.68	0.008
892.86	0.008
893.03	0.008
893.21	0.008
893.39	0.008
893.57	0.009
893.75	0.008
893.93	0.008
894.10	0.009
894.28	0.009
894.46	0.009
894.64	0.009
894.82	0.009
894.99	0.009
895.17	0.009
895.35	0.009
895.53	0.009
895.71	0.009
895.88	0.009
896.06	0.009
896.24	0.009
896.42	0.009
896.59	0.008
896.77	0.009
896.95	0.009
897.13	0.009
897.31	0.008
897.48	0.008
897.66	0.009
897.84	0.009
898.02	0.009
898.19	0.009
898.37	0.009
898.55	0.009
898.73	0.009
898.91	0.009
899.08	0.009
899.26	0.009
899.44	0.009
899.62	0.009
899.79	0.009
899.97	0.009
900.15	0.009
900.33	0.009
900.50	0.009
900.68	0.010
900.86	0.010
901.04	0.010
901.21	0.010
901.39	0.010
901.57	0.010
901.74	0.010
901.92	0.010
902.10	0.010
902.28	0.010
902.45	0.010
902.63	0.010
902.81	0.010
902.99	0.010
903.16	0.010
903.34	0.010
903.52	0.010
903.69	0.010
903.87	0.010
904.05	0.010
904.22	0.011
904.40	0.010
904.58	0.011
904.76	0.011
904.93	0.011
905.11	0.012
905.29	0.011
905.46	0.012
905.64	0.012
905.82	0.012
905.99	0.012
906.17	0.013
906.35	0.013
906.53	0.013
906.70	0.013
906.88	0.014
907.06	0.014
907.23	0.014
907.41	0.015
907.59	0.015
907.76	0.015
907.94	0.016
908.12	0.016
908.29	0.017
908.47	0.017
908.65	0.017
908.82	0.018
909.00	0.018
909.18	0.018
909.35	0.018
909.53	0.019
909.71	0.019
909.88	0.019
910.06	0.020
910.23	0.020
910.41	0.020
910.59	0.021
910.76	0.021
910.94	0.021
911.12	0.022
911.29	0.022
911.47	0.023
911.65	0.023
911.82	0.023
912.00	0.023
912.17	0.024
912.35	0.024
912.53	0.024
912.70	0.024
912.88	0.025
913.06	0.025
913.23	0.025
913.41	0.025
913.58	0.025
913.76	0.026
913.94	0.026
914.11	0.026
914.29	0.026
914.46	0.026
914.64	0.026
914.82	0.026
914.99	0.027
915.17	0.027
915.34	0.027
915.52	0.028
915.70	0.028
915.87	0.028
916.05	0.029
916.22	0.029
916.40	0.030
916.57	0.030
916.75	0.030
916.93	0.030
917.10	0.031
917.28	0.031
917.45	0.032
917.63	0.032
917.80	0.032
917.98	0.033
918.16	0.033
918.33	0.033
918.51	0.034
918.68	0.034
918.86	0.034
919.03	0.034
919.21	0.034
919.39	0.034
919.56	0.034
919.74	0.035
919.91	0.035
920.09	0.035
920.26	0.035
920.44	0.035
920.61	0.035
920.79	0.036
920.96	0.036
921.14	0.036
921.31	0.037
921.49	0.037
921.67	0.037
921.84	0.037
922.02	0.038
922.19	0.038
922.37	0.039
922.54	0.039
922.72	0.039
922.89	0.039
923.07	0.040
923.24	0.040
923.42	0.040
923.59	0.040
923.77	0.041
923.94	0.041
924.12	0.041
924.29	0.042
924.47	0.042
924.64	0.042
924.82	0.043
924.99	0.043
925.17	0.043
925.34	0.043
925.52	0.044
925.69	0.044
925.87	0.044
926.04	0.044
926.22	0.044
926.39	0.044
926.57	0.044
926.74	0.044
926.91	0.044
927.09	0.043
927.26	0.043
927.44	0.043
927.61	0.043
927.79	0.043
927.96	0.043
928.14	0.043
928.31	0.043
928.49	0.042
928.66	0.042
928.84	0.041
929.01	0.042
929.18	0.041
929.36	0.041
929.53	0.041
929.71	0.041
929.88	0.040
930.06	0.040
930.23	0.039
930.41	0.039
930.58	0.038
930.75	0.038
930.93	0.037
931.10	0.036
931.28	0.035
931.45	0.035
931.63	0.034
931.80	0.033
931.97	0.032
932.15	0.032
932.32	0.031
932.50	0.030
932.67	0.029
932.84	0.028
933.02	0.027
933.19	0.027
933.37	0.025
933.54	0.024
933.71	0.024
933.89	0.023
934.06	0.021
934.24	0.020
934.41	0.019
934.58	0.018
934.76	0.017
934.93	0.016
935.11	0.014
935.28	0.013
935.45	0.012
935.63	0.011
935.80	0.010
935.98	0.009
936.15	0.007
936.32	0.006
936.50	0.005
936.67	0.004
936.84	0.002
937.02	0.001
937.19	-0.000
937.36	-0.002
937.54	-0.003
937.71	-0.005
937.89	-0.006
938.06	-0.008
938.23	-0.009
938.41	-0.010
938.58	-0.012
938.75	-0.013
938.93	-0.014
939.10	-0.015
939.27	-0.016
939.45	-0.017
939.62	-0.019
939.79	-0.020
939.97	-0.022
940.14	-0.023
940.31	-0.024
940.49	-0.026
940.66	-0.027
940.83	-0.029
941.01	-0.030
941.18	-0.031
941.35	-0.033
941.53	-0.034
941.70	-0.035
941.87	-0.037
942.05	-0.038
942.22	-0.040
942.39	-0.041
942.57	-0.043
942.74	-0.043
942.91	-0.045
943.08	-0.046
943.26	-0.047
943.43	-0.048
943.60	-0.050
943.78	-0.051
943.95	-0.052
944.12	-0.053
944.29	-0.055
944.47	-0.056
944.64	-0.058
944.81	-0.059
944.99	-0.061
945.16	-0.062
945.33	-0.063
945.50	-0.064
945.68	-0.065
945.85	-0.066
946.02	-0.067
946.20	-0.069
946.37	-0.070
946.54	-0.071
946.71	-0.072
946.89	-0.073
947.06	-0.074
947.23	-0.075
947.40	-0.077
947.58	-0.078
947.75	-0.079
947.92	-0.080
948.09	-0.081
948.27	-0.083
948.44	-0.084
948.61	-0.085
948.78	-0.087
948.96	-0.089
949.13	-0.090
949.30	-0.091
949.47	-0.093
949.65	-0.094
949.82	-0.095
949.99	-0.097
950.16	-0.099
950.33	-0.100
950.51	-0.102
950.68	-0.103
950.85	-0.105
951.02	-0.106
951.20	-0.108
951.37	-0.109
951.54	-0.111
951.71	-0.112
951.88	-0.114
952.06	-0.115
952.23	-0.116
952.40	-0.118
952.57	-0.119
952.74	-0.121
952.92	-0.122
953.09	-0.124
953.26	-0.125
953.43	-0.126
953.60	-0.128
953.77	-0.129
953.95	-0.130
954.12	-0.132
954.29	-0.133
954.46	-0.134
954.63	-0.136
954.81	-0.137
954.98	-0.138
955.15	-0.140
955.32	-0.141
955.49	-0.142
955.66	-0.144
955.84	-0.145
956.01	-0.147
956.18	-0.148
956.35	-0.149
956.52	-0.150
956.69	-0.151
956.87	-0.152
957.04	-0.152
957.21	-0.154
957.38	-0.155
957.55	-0.156
957.72	-0.157
957.89	-0.158
958.07	-0.158
958.24	-0.160
958.41	-0.161
958.58	-0.162
958.75	-0.163
958.92	-0.164
959.09	-0.165
959.26	-0.165
959.44	-0.166
959.61	-0.167
959.78	-0.168
959.95	-0.168
960.12	-0.169
960.29	-0.169
960.46	-0.170
960.63	-0.171
960.81	-0.171
960.98	-0.172
961.15	-0.173
961.32	-0.173
961.49	-0.174
961.66	-0.174
961.83	-0.175
962.00	-0.175
962.17	-0.175
962.34	-0.175
962.52	-0.175
962.69	-0.176
962.86	-0.176
963.03	-0.175
963.20	-0.176
963.37	-0.177
963.54	-0.177
963.71	-0.177
963.88	-0.178
964.05	-0.178
964.22	-0.178
964.39	-0.179
964.56	-0.179
964.74	-0.179
964.91	-0.180
965.08	-0.180
965.25	-0.180
965.42	-0.180
965.59	-0.180
965.76	-0.180
965.93	-0.180
966.10	-0.181
966.27	-0.181
966.44	-0.181
966.61	-0.181
966.78	-0.181
966.95	-0.181
967.12	-0.182
967.29	-0.182
967.46	-0.182
967.63	-0.182
967.80	-0.183
967.97	-0.182
968.14	-0.182
968.32	-0.182
968.49	-0.182
968.66	-0.183
968.83	-0.183
969.00	-0.183
969.17	-0.183
969.34	-0.183
969.51	-0.184
969.68	-0.184
969.85	-0.185
970.02	-0.185
970.19	-0.185
970.36	-0.185
970.53	-0.186
970.70	-0.186
970.87	-0.186
971.04	-0.186
971.21	-0.186
971.38	-0.186
971.55	-0.186
971.72	-0.186
971.89	-0.186
972.06	-0.186
972.23	-0.186
972.40	-0.186
972.57	-0.186
972.74	-0.187
972.91	-0.187
973.07	-0.187
973.24	-0.187
973.41	-0.187
973.58	-0.187
973.75	-0.187
973.92	-0.187
974.09	-0.187
974.26	-0.187
974.43	-0.187
974.60	-0.187
974.77	-0.187
974.94	-0.187
975.11	-0.187
975.28	-0.187
975.45	-0.187
975.62	-0.187
975.79	-0.188
975.96	-0.188
976.13	-0.188
976.30	-0.188
976.47	-0.188
976.64	-0.188
976.80	-0.188
976.97	-0.188
977.14	-0.188
977.31	-0.188
977.48	-0.188
977.65	-0.188
977.82	-0.188
977.99	-0.188
978.16	-0.187
978.33	-0.187
978.50	-0.186
978.67	-0.186
978.83	-0.186
979.00	-0.186
979.17	-0.186
979.34	-0.186
979.51	-0.186
979.68	-0.185
979.85	-0.185
980.02	-0.186
980.19	-0.186
980.36	-0.186
980.52	-0.187
980.69	-0.186
980.86	-0.186
981.03	-0.186
981.20	-0.186
981.37	-0.185
981.54	-0.185
981.71	-0.185
981.88	-0.184
982.04	-0.184
982.21	-0.183
982.38	-0.183
982.55	-0.183
982.72	-0.183
982.89	-0.182
983.06	-0.182
983.22	-0.182
983.39	-0.181
983.56	-0.181
983.73	-0.181
983.90	-0.181
984.07	-0.181
984.24	-0.181
984.40	-0.180
984.57	-0.180
984.74	-0.180
984.91	-0.180
985.08	-0.180
985.25	-0.179
985.41	-0.179
985.58	-0.178
985.75	-0.178
985.92	-0.177
986.09	-0.177
986.26	-0.177
986.42	-0.176
986.59	-0.176
986.76	-0.176
986.93	-0.176
987.10	-0.176
987.27	-0.175
987.43	-0.176
987.60	-0.175
987.77	-0.174
987.94	-0.174
988.11	-0.173
988.27	-0.173
988.44	-0.173
988.61	-0.173
988.78	-0.172
988.95	-0.171
989.11	-0.171
989.28	-0.171
989.45	-0.170
989.62	-0.171
989.79	-0.171
989.95	-0.170
990.12	-0.170
990.29	-0.169
990.46	-0.169
990.62	-0.169
990.79	-0.169
990.96	-0.169
991.13	-0.168
991.30	-0.168
991.46	-0.167
991.63	-0.166
991.80	-0.166
991.97	-0.165
992.13	-0.165
992.30	-0.165
992.47	-0.164
992.64	-0.163
992.80	-0.163
992.97	-0.162
993.14	-0.162
993.31	-0.162
993.47	-0.161
993.64	-0.161
993.81	-0.161
993.98	-0.160
994.14	-0.160
994.31	-0.160
994.48	-0.159
994.64	-0.158
994.81	-0.158
994.98	-0.157
995.15	-0.157
995.31	-0.156
995.48	-0.157
995.65	-0.155
995.82	-0.155
995.98	-0.154
996.15	-0.154
996.32	-0.154
996.48	-0.154
996.65	-0.153
996.82	-0.153
996.99	-0.153
997.15	-0.153
997.32	-0.152
997.49	-0.152
997.65	-0.151
997.82	-0.151
997.99	-0.150
998.15	-0.150
998.32	-0.149
998.49	-0.149
998.65	-0.149
998.82	-0.148
998.99	-0.147
999.15	-0.147
999.32	-0.146
999.49	-0.146
999.65	-0.145
999.82	-0.145
999.99	-0.145
1000.15	-0.145
1000.32	-0.144
1000.49	-0.144
1000.65	-0.144
1000.82	-0.144
1000.99	-0.143
1001.15	-0.143
1001.32	-0.142
1001.49	-0.142
1001.65	-0.141
1001.82	-0.141
1001.99	-0.140
1002.15	-0.139
1002.32	-0.139
1002.49	-0.138
1002.65	-0.137
1002.82	-0.136
1002.99	-0.136
1003.15	-0.136
1003.32	-0.135
1003.48	-0.135
1003.65	-0.134
1003.82	-0.134
1003.98	-0.133
1004.15	-0.132
1004.32	-0.131
1004.48	-0.131
1004.65	-0.131
1004.81	-0.130
1004.98	-0.130
1005.15	-0.129
1005.31	-0.128
1005.48	-0.128
1005.64	-0.127
1005.81	-0.127
1005.98	-0.127
1006.14	-0.127
1006.31	-0.125
1006.47	-0.125
1006.64	-0.126
1006.81	-0.124
1006.97	-0.124
1007.14	-0.124
1007.30	-0.123
1007.47	-0.123
1007.63	-0.122
1007.80	-0.122
1007.97	-0.122
1008.13	-0.122
1008.30	-0.121
1008.46	-0.120
1008.63	-0.121
1008.79	-0.120
1008.96	-0.120
1009.13	-0.119
1009.29	-0.118
1009.46	-0.117
1009.62	-0.117
1009.79	-0.115
1009.95	-0.114
1010.12	-0.114
1010.28	-0.113
1010.45	-0.112
1010.62	-0.112
1010.78	-0.112
1010.95	-0.111
1011.11	-0.110
1011.28	-0.111
1011.44	-0.109
1011.61	-0.109
1011.77	-0.109
1011.94	-0.108
1012.10	-0.108
1012.27	-0.108
1012.43	-0.107
1012.60	-0.106
1012.76	-0.106
1012.93	-0.106
1013.10	-0.105
1013.26	-0.104
1013.43	-0.104
1013.59	-0.103
1013.76	-0.102
1013.92	-0.101
1014.09	-0.100
1014.25	-0.099
1014.42	-0.099
1014.58	-0.097
1014.75	-0.097
1014.91	-0.095
1015.08	-0.095
1015.24	-0.094
1015.41	-0.094
1015.57	-0.094
1015.73	-0.093
1015.90	-0.093
1016.06	-0.093
1016.23	-0.092
1016.39	-0.093
1016.56	-0.092
1016.72	-0.092
1016.89	-0.092
1017.05	-0.092
1017.22	-0.091
1017.38	-0.091
1017.55	-0.090
1017.71	-0.090
1017.88	-0.089
1018.04	-0.089
1018.21	-0.089
1018.37	-0.089
1018.53	-0.088
1018.70	-0.087
1018.86	-0.087
1019.03	-0.086
1019.19	-0.086
1019.36	-0.086
1019.52	-0.086
1019.69	-0.087
1019.85	-0.085
1020.01	-0.084
1020.18	-0.084
1020.34	-0.084
1020.51	-0.083
1020.67	-0.084
1020.84	-0.083
1021.00	-0.082
1021.16	-0.080
1021.33	-0.080
1021.49	-0.079
1021.66	-0.079
1021.82	-0.078
1021.98	-0.077
1022.15	-0.076
1022.31	-0.076
1022.48	-0.076
1022.64	-0.075
1022.80	-0.075
1022.97	-0.075
1023.13	-0.075
1023.30	-0.074
1023.46	-0.074
1023.62	-0.073
1023.79	-0.074
1023.95	-0.074
1024.12	-0.073
1024.28	-0.073
1024.44	-0.073
1024.61	-0.073
1024.77	-0.073
1024.93	-0.073
1025.10	-0.073
1025.26	-0.073
1025.43	-0.073
1025.59	-0.072
1025.75	-0.071
1025.92	-0.071
1026.08	-0.071
1026.24	-0.069
1026.41	-0.069
1026.57	-0.067
1026.73	-0.067
1026.90	-0.067
1027.06	-0.066
1027.23	-0.064
1027.39	-0.064
1027.55	-0.064
1027.72	-0.063
1027.88	-0.063
1028.04	-0.063
1028.21	-0.062
1028.37	-0.062
1028.53	-0.061
1028.70	-0.060
1028.86	-0.061
1029.02	-0.061
1029.19	-0.061
1029.35	-0.061
1029.51	-0.061
1029.67	-0.060
1029.84	-0.059
1030.00	-0.059
1030.16	-0.058
1030.33	-0.058
1030.49	-0.058
1030.65	-0.058
1030.82	-0.057
1030.98	-0.057
1031.14	-0.056
1031.31	-0.055
1031.47	-0.055
1031.63	-0.055
1031.79	-0.054
1031.96	-0.055
1032.12	-0.054
1032.28	-0.053
1032.45	-0.052
1032.61	-0.053
1032.77	-0.052
1032.93	-0.051
1033.10	-0.050
1033.26	-0.049
1033.42	-0.048
1033.58	-0.047
1033.75	-0.044
1033.91	-0.044
1034.07	-0.044
1034.24	-0.044
1034.40	-0.043
1034.56	-0.043
1034.72	-0.043
1034.89	-0.044
1035.05	-0.044
1035.21	-0.043
1035.37	-0.045
1035.54	-0.046
1035.70	-0.045
1035.86	-0.044
1036.02	-0.044
1036.19	-0.042
1036.35	-0.042
1036.51	-0.041
1036.67	-0.040
1036.83	-0.039
1037.00	-0.040
1037.16	-0.039
1037.32	-0.039
1037.48	-0.040
1037.65	-0.040
1037.81	-0.039
1037.97	-0.039
1038.13	-0.039
1038.29	-0.038
1038.46	-0.038
1038.62	-0.039
1038.78	-0.040
1038.94	-0.040
1039.10	-0.039
1039.27	-0.039
1039.43	-0.039
1039.59	-0.038
1039.75	-0.039
1039.91	-0.038
1040.08	-0.038
1040.24	-0.038
1040.40	-0.037
1040.56	-0.036
1040.72	-0.035
1040.89	-0.034
1041.05	-0.034
1041.21	-0.033
1041.37	-0.034
1041.53	-0.033
1041.69	-0.032
1041.86	-0.032
1042.02	-0.030
1042.18	-0.030
1042.34	-0.030
1042.50	-0.029
1042.66	-0.029
1042.83	-0.029
1042.99	-0.029
1043.15	-0.030
1043.31	-0.030
1043.47	-0.032
1043.63	-0.031
1043.79	-0.033
1043.96	-0.032
1044.12	-0.032
1044.28	-0.031
1044.44	-0.031
1044.60	-0.030
1044.76	-0.031
1044.92	-0.030
1045.09	-0.029
1045.25	-0.029
1045.41	-0.029
1045.57	-0.028
1045.73	-0.029
1045.89	-0.030
1046.05	-0.030
1046.21	-0.038
1046.38	-0.027
1046.54	-0.030
1046.70	-0.043
1046.86	-0.022
>>>>>End Processed Spectral Data<<<<<
