SpectraSuite Data File
++++++++++++++++++++++++++++++++++++
Date: Mon May 06 13:25:49 CDT 2013
User: Students
Dark Spectrum Present: Yes
Reference Spectrum Present: Yes
Number of Sampled Component Spectra: 1
Spectrometers: USB4H00887
Integration Time (usec): 50000 (USB4H00887)
Spectra Averaged: 10 (USB4H00887)
Boxcar Smoothing: 5 (USB4H00887)
Correct for Electrical Dark: No (USB4H00887)
Strobe/Lamp Enabled: No (USB4H00887)
Correct for Detector Non-linearity: No (USB4H00887)
Correct for Stray Light: No (USB4H00887)
Number of Pixels in Processed Spectrum: 3648
>>>>>Begin Processed Spectral Data<<<<<
345.83	-0.000
346.05	-0.000
346.26	-0.000
346.48	-0.000
346.70	0.481
346.92	0.316
347.14	0.051
347.35	-0.226
347.57	-0.376
347.79	-0.250
348.01	-0.188
348.23	-0.283
348.44	-0.444
348.66	-0.267
348.88	-0.176
349.10	-0.181
349.32	-0.148
349.53	-0.118
349.75	-0.103
349.97	-0.073
350.19	-0.087
350.41	-0.108
350.62	-0.071
350.84	-0.061
351.06	-0.049
351.28	-0.056
351.50	-0.053
351.71	-0.090
351.93	-0.132
352.15	-0.102
352.37	-0.137
352.58	-0.139
352.80	-0.157
353.02	-0.157
353.24	-0.151
353.46	-0.201
353.67	-0.251
353.89	-0.210
354.11	-0.187
354.33	-0.206
354.54	-0.213
354.76	-0.165
354.98	-0.138
355.20	-0.127
355.41	-0.124
355.63	-0.090
355.85	-0.030
356.07	0.001
356.28	-0.002
356.50	0.009
356.72	0.046
356.94	0.019
357.15	0.022
357.37	-0.019
357.59	-0.045
357.81	-0.058
358.02	-0.043
358.24	-0.017
358.46	-0.021
358.68	-0.027
358.89	-0.038
359.11	-0.084
359.33	-0.061
359.55	-0.064
359.76	-0.044
359.98	-0.023
360.20	-0.012
360.42	-0.059
360.63	-0.108
360.85	-0.089
361.07	-0.086
361.29	-0.074
361.50	-0.051
361.72	-0.061
361.94	-0.061
362.15	-0.053
362.37	-0.030
362.59	0.000
362.81	0.022
363.02	-0.003
363.24	-0.020
363.46	-0.007
363.68	-0.008
363.89	-0.015
364.11	-0.007
364.33	-0.035
364.54	-0.024
364.76	-0.038
364.98	-0.049
365.20	-0.056
365.41	-0.009
365.63	0.006
365.85	-0.001
366.06	0.001
366.28	0.011
366.50	0.025
366.71	0.051
366.93	0.016
367.15	0.036
367.37	0.016
367.58	0.023
367.80	0.018
368.02	0.016
368.23	0.040
368.45	0.028
368.67	0.047
368.88	0.016
369.10	0.040
369.32	0.044
369.53	0.030
369.75	0.075
369.97	0.081
370.19	0.058
370.40	0.088
370.62	0.077
370.84	0.080
371.05	0.113
371.27	0.162
371.49	0.123
371.70	0.155
371.92	0.148
372.14	0.126
372.35	0.115
372.57	0.145
372.79	0.096
373.00	0.081
373.22	0.079
373.44	0.017
373.65	0.014
373.87	0.042
374.09	0.016
374.30	0.016
374.52	0.032
374.74	0.057
374.95	0.044
375.17	0.075
375.39	0.080
375.60	0.085
375.82	0.093
376.04	0.116
376.25	0.080
376.47	0.090
376.68	0.111
376.90	0.105
377.12	0.093
377.33	0.090
377.55	0.081
377.77	0.066
377.98	0.091
378.20	0.112
378.42	0.096
378.63	0.139
378.85	0.178
379.07	0.164
379.28	0.140
379.50	0.130
379.71	0.163
379.93	0.176
380.15	0.215
380.36	0.187
380.58	0.219
380.80	0.197
381.01	0.189
381.23	0.173
381.44	0.178
381.66	0.191
381.88	0.188
382.09	0.191
382.31	0.189
382.53	0.174
382.74	0.176
382.96	0.159
383.17	0.145
383.39	0.147
383.61	0.150
383.82	0.142
384.04	0.152
384.25	0.183
384.47	0.166
384.69	0.165
384.90	0.153
385.12	0.192
385.33	0.163
385.55	0.203
385.77	0.173
385.98	0.137
386.20	0.130
386.41	0.123
386.63	0.102
386.85	0.109
387.06	0.108
387.28	0.139
387.49	0.140
387.71	0.168
387.93	0.176
388.14	0.197
388.36	0.253
388.57	0.290
388.79	0.278
389.01	0.312
389.22	0.313
389.44	0.310
389.65	0.285
389.87	0.309
390.08	0.291
390.30	0.295
390.52	0.305
390.73	0.275
390.95	0.269
391.16	0.296
391.38	0.291
391.59	0.277
391.81	0.286
392.03	0.306
392.24	0.279
392.46	0.291
392.67	0.296
392.89	0.271
393.10	0.300
393.32	0.316
393.53	0.311
393.75	0.300
393.97	0.322
394.18	0.344
394.40	0.334
394.61	0.321
394.83	0.325
395.04	0.321
395.26	0.352
395.47	0.343
395.69	0.342
395.91	0.330
396.12	0.344
396.34	0.345
396.55	0.327
396.77	0.330
396.98	0.334
397.20	0.336
397.41	0.330
397.63	0.323
397.84	0.305
398.06	0.288
398.27	0.276
398.49	0.276
398.71	0.275
398.92	0.280
399.14	0.296
399.35	0.315
399.57	0.306
399.78	0.318
400.00	0.308
400.21	0.305
400.43	0.312
400.64	0.332
400.86	0.324
401.07	0.309
401.29	0.305
401.50	0.284
401.72	0.263
401.93	0.271
402.15	0.265
402.36	0.267
402.58	0.272
402.79	0.283
403.01	0.287
403.22	0.298
403.44	0.335
403.65	0.337
403.87	0.337
404.08	0.345
404.30	0.357
404.51	0.352
404.73	0.377
404.94	0.380
405.16	0.394
405.37	0.392
405.59	0.375
405.80	0.350
406.02	0.358
406.23	0.367
406.45	0.374
406.66	0.361
406.88	0.366
407.09	0.337
407.31	0.340
407.52	0.319
407.74	0.315
407.95	0.324
408.17	0.320
408.38	0.323
408.60	0.334
408.81	0.331
409.03	0.333
409.24	0.336
409.45	0.357
409.67	0.344
409.88	0.350
410.10	0.360
410.31	0.357
410.53	0.384
410.74	0.389
410.96	0.376
411.17	0.372
411.39	0.361
411.60	0.362
411.82	0.353
412.03	0.365
412.24	0.360
412.46	0.360
412.67	0.353
412.89	0.345
413.10	0.328
413.32	0.343
413.53	0.358
413.75	0.364
413.96	0.360
414.17	0.362
414.39	0.367
414.60	0.372
414.82	0.373
415.03	0.382
415.25	0.392
415.46	0.399
415.68	0.383
415.89	0.377
416.10	0.382
416.32	0.380
416.53	0.374
416.75	0.370
416.96	0.371
417.18	0.366
417.39	0.375
417.60	0.363
417.82	0.367
418.03	0.361
418.25	0.366
418.46	0.355
418.67	0.351
418.89	0.354
419.10	0.354
419.32	0.355
419.53	0.367
419.75	0.361
419.96	0.363
420.17	0.356
420.39	0.363
420.60	0.360
420.82	0.375
421.03	0.394
421.24	0.392
421.46	0.377
421.67	0.384
421.89	0.374
422.10	0.373
422.31	0.369
422.53	0.362
422.74	0.364
422.96	0.358
423.17	0.356
423.38	0.347
423.60	0.353
423.81	0.361
424.03	0.352
424.24	0.348
424.45	0.344
424.67	0.345
424.88	0.355
425.09	0.350
425.31	0.356
425.52	0.350
425.74	0.354
425.95	0.359
426.16	0.368
426.38	0.369
426.59	0.382
426.80	0.386
427.02	0.392
427.23	0.391
427.45	0.396
427.66	0.390
427.87	0.390
428.09	0.393
428.30	0.390
428.51	0.391
428.73	0.391
428.94	0.380
429.15	0.377
429.37	0.370
429.58	0.366
429.79	0.365
430.01	0.371
430.22	0.382
430.44	0.372
430.65	0.364
430.86	0.360
431.08	0.360
431.29	0.363
431.50	0.364
431.72	0.367
431.93	0.371
432.14	0.371
432.36	0.368
432.57	0.356
432.78	0.360
433.00	0.366
433.21	0.364
433.42	0.367
433.64	0.367
433.85	0.370
434.06	0.368
434.28	0.371
434.49	0.372
434.70	0.361
434.92	0.368
435.13	0.368
435.34	0.364
435.56	0.368
435.77	0.365
435.98	0.365
436.20	0.367
436.41	0.364
436.62	0.366
436.83	0.367
437.05	0.375
437.26	0.374
437.47	0.372
437.69	0.371
437.90	0.369
438.11	0.368
438.33	0.371
438.54	0.375
438.75	0.375
438.97	0.367
439.18	0.367
439.39	0.370
439.60	0.369
439.82	0.366
440.03	0.365
440.24	0.365
440.46	0.368
440.67	0.368
440.88	0.363
441.10	0.367
441.31	0.370
441.52	0.362
441.73	0.363
441.95	0.363
442.16	0.362
442.37	0.360
442.58	0.360
442.80	0.357
443.01	0.352
443.22	0.355
443.44	0.355
443.65	0.355
443.86	0.355
444.07	0.352
444.29	0.355
444.50	0.355
444.71	0.361
444.92	0.358
445.14	0.361
445.35	0.364
445.56	0.358
445.78	0.355
445.99	0.359
446.20	0.360
446.41	0.355
446.63	0.351
446.84	0.353
447.05	0.349
447.26	0.349
447.48	0.343
447.69	0.345
447.90	0.340
448.11	0.344
448.33	0.335
448.54	0.333
448.75	0.337
448.96	0.337
449.18	0.339
449.39	0.334
449.60	0.334
449.81	0.335
450.03	0.327
450.24	0.328
450.45	0.324
450.66	0.327
450.87	0.329
451.09	0.327
451.30	0.327
451.51	0.324
451.72	0.326
451.94	0.328
452.15	0.330
452.36	0.331
452.57	0.332
452.78	0.332
453.00	0.330
453.21	0.330
453.42	0.327
453.63	0.325
453.85	0.327
454.06	0.326
454.27	0.325
454.48	0.326
454.69	0.325
454.91	0.326
455.12	0.326
455.33	0.328
455.54	0.327
455.75	0.330
455.97	0.331
456.18	0.329
456.39	0.327
456.60	0.324
456.81	0.321
457.03	0.323
457.24	0.321
457.45	0.320
457.66	0.319
457.87	0.318
458.09	0.316
458.30	0.315
458.51	0.316
458.72	0.318
458.93	0.318
459.15	0.316
459.36	0.315
459.57	0.316
459.78	0.315
459.99	0.315
460.20	0.313
460.42	0.313
460.63	0.316
460.84	0.314
461.05	0.314
461.26	0.314
461.47	0.315
461.69	0.315
461.90	0.315
462.11	0.317
462.32	0.317
462.53	0.317
462.74	0.318
462.96	0.317
463.17	0.316
463.38	0.315
463.59	0.315
463.80	0.316
464.01	0.313
464.23	0.311
464.44	0.310
464.65	0.309
464.86	0.310
465.07	0.310
465.28	0.307
465.49	0.308
465.71	0.311
465.92	0.312
466.13	0.310
466.34	0.311
466.55	0.311
466.76	0.310
466.97	0.310
467.19	0.309
467.40	0.307
467.61	0.308
467.82	0.307
468.03	0.304
468.24	0.302
468.45	0.302
468.66	0.302
468.88	0.303
469.09	0.302
469.30	0.303
469.51	0.303
469.72	0.302
469.93	0.304
470.14	0.305
470.35	0.305
470.57	0.303
470.78	0.302
470.99	0.301
471.20	0.300
471.41	0.299
471.62	0.298
471.83	0.298
472.04	0.301
472.25	0.299
472.47	0.298
472.68	0.297
472.89	0.298
473.10	0.297
473.31	0.298
473.52	0.300
473.73	0.300
473.94	0.300
474.15	0.300
474.36	0.299
474.57	0.299
474.79	0.300
475.00	0.300
475.21	0.301
475.42	0.303
475.63	0.301
475.84	0.300
476.05	0.301
476.26	0.300
476.47	0.301
476.68	0.300
476.89	0.299
477.10	0.299
477.32	0.298
477.53	0.297
477.74	0.296
477.95	0.297
478.16	0.296
478.37	0.297
478.58	0.297
478.79	0.296
479.00	0.298
479.21	0.297
479.42	0.297
479.63	0.298
479.84	0.298
480.05	0.297
480.26	0.296
480.47	0.296
480.69	0.294
480.90	0.294
481.11	0.294
481.32	0.292
481.53	0.292
481.74	0.292
481.95	0.292
482.16	0.291
482.37	0.291
482.58	0.291
482.79	0.291
483.00	0.291
483.21	0.289
483.42	0.288
483.63	0.288
483.84	0.289
484.05	0.289
484.26	0.288
484.47	0.288
484.68	0.289
484.89	0.289
485.10	0.289
485.31	0.289
485.52	0.290
485.73	0.290
485.94	0.290
486.15	0.289
486.37	0.287
486.58	0.288
486.79	0.288
487.00	0.286
487.21	0.285
487.42	0.285
487.63	0.284
487.84	0.285
488.05	0.285
488.26	0.285
488.47	0.285
488.68	0.286
488.89	0.284
489.10	0.284
489.31	0.283
489.52	0.283
489.73	0.282
489.94	0.282
490.15	0.282
490.36	0.281
490.57	0.280
490.78	0.279
490.99	0.278
491.20	0.279
491.41	0.278
491.62	0.279
491.83	0.278
492.04	0.277
492.25	0.276
492.45	0.275
492.66	0.274
492.87	0.274
493.08	0.274
493.29	0.275
493.50	0.274
493.71	0.273
493.92	0.273
494.13	0.274
494.34	0.275
494.55	0.276
494.76	0.275
494.97	0.276
495.18	0.276
495.39	0.276
495.60	0.276
495.81	0.276
496.02	0.275
496.23	0.275
496.44	0.273
496.65	0.272
496.86	0.270
497.07	0.271
497.28	0.270
497.49	0.269
497.70	0.269
497.91	0.268
498.12	0.268
498.32	0.268
498.53	0.268
498.74	0.268
498.95	0.269
499.16	0.269
499.37	0.268
499.58	0.269
499.79	0.269
500.00	0.268
500.21	0.269
500.42	0.269
500.63	0.268
500.84	0.267
501.05	0.267
501.26	0.266
501.46	0.266
501.67	0.266
501.88	0.264
502.09	0.264
502.30	0.263
502.51	0.262
502.72	0.262
502.93	0.261
503.14	0.261
503.35	0.260
503.56	0.260
503.77	0.259
503.97	0.257
504.18	0.258
504.39	0.257
504.60	0.258
504.81	0.257
505.02	0.256
505.23	0.256
505.44	0.255
505.65	0.256
505.86	0.256
506.07	0.256
506.27	0.255
506.48	0.254
506.69	0.254
506.90	0.253
507.11	0.252
507.32	0.253
507.53	0.253
507.74	0.252
507.95	0.252
508.15	0.251
508.36	0.251
508.57	0.252
508.78	0.251
508.99	0.251
509.20	0.251
509.41	0.250
509.62	0.249
509.82	0.249
510.03	0.249
510.24	0.249
510.45	0.249
510.66	0.249
510.87	0.248
511.08	0.248
511.29	0.248
511.49	0.248
511.70	0.248
511.91	0.247
512.12	0.247
512.33	0.247
512.54	0.247
512.75	0.246
512.95	0.244
513.16	0.244
513.37	0.244
513.58	0.242
513.79	0.242
514.00	0.241
514.20	0.240
514.41	0.240
514.62	0.239
514.83	0.238
515.04	0.237
515.25	0.238
515.46	0.237
515.66	0.236
515.87	0.236
516.08	0.236
516.29	0.236
516.50	0.236
516.71	0.235
516.91	0.235
517.12	0.235
517.33	0.234
517.54	0.232
517.75	0.232
517.95	0.231
518.16	0.230
518.37	0.230
518.58	0.229
518.79	0.229
519.00	0.228
519.20	0.228
519.41	0.227
519.62	0.227
519.83	0.228
520.04	0.227
520.24	0.226
520.45	0.226
520.66	0.225
520.87	0.224
521.08	0.223
521.28	0.222
521.49	0.221
521.70	0.220
521.91	0.219
522.12	0.219
522.32	0.218
522.53	0.218
522.74	0.216
522.95	0.216
523.16	0.216
523.36	0.215
523.57	0.215
523.78	0.214
523.99	0.213
524.20	0.212
524.40	0.211
524.61	0.209
524.82	0.209
525.03	0.209
525.23	0.208
525.44	0.207
525.65	0.207
525.86	0.206
526.06	0.205
526.27	0.204
526.48	0.203
526.69	0.202
526.90	0.202
527.10	0.201
527.31	0.200
527.52	0.200
527.73	0.198
527.93	0.198
528.14	0.196
528.35	0.196
528.56	0.195
528.76	0.194
528.97	0.194
529.18	0.193
529.39	0.192
529.59	0.191
529.80	0.190
530.01	0.189
530.22	0.188
530.42	0.187
530.63	0.187
530.84	0.185
531.05	0.185
531.25	0.184
531.46	0.183
531.67	0.182
531.88	0.181
532.08	0.180
532.29	0.179
532.50	0.178
532.70	0.177
532.91	0.176
533.12	0.175
533.33	0.174
533.53	0.172
533.74	0.171
533.95	0.170
534.15	0.169
534.36	0.168
534.57	0.167
534.78	0.167
534.98	0.166
535.19	0.165
535.40	0.164
535.60	0.162
535.81	0.161
536.02	0.160
536.23	0.159
536.43	0.159
536.64	0.158
536.85	0.157
537.05	0.155
537.26	0.154
537.47	0.153
537.67	0.152
537.88	0.151
538.09	0.151
538.30	0.150
538.50	0.149
538.71	0.146
538.92	0.145
539.12	0.144
539.33	0.142
539.54	0.141
539.74	0.140
539.95	0.139
540.16	0.138
540.36	0.136
540.57	0.134
540.78	0.133
540.98	0.132
541.19	0.132
541.40	0.131
541.60	0.130
541.81	0.128
542.02	0.127
542.22	0.126
542.43	0.125
542.64	0.124
542.84	0.123
543.05	0.122
543.26	0.120
543.46	0.118
543.67	0.118
543.88	0.117
544.08	0.116
544.29	0.114
544.50	0.113
544.70	0.112
544.91	0.111
545.12	0.110
545.32	0.109
545.53	0.108
545.74	0.108
545.94	0.106
546.15	0.105
546.35	0.104
546.56	0.103
546.77	0.102
546.97	0.101
547.18	0.099
547.39	0.099
547.59	0.098
547.80	0.096
548.01	0.095
548.21	0.094
548.42	0.094
548.62	0.093
548.83	0.092
549.04	0.091
549.24	0.091
549.45	0.089
549.65	0.089
549.86	0.087
550.07	0.087
550.27	0.086
550.48	0.084
550.69	0.083
550.89	0.082
551.10	0.081
551.30	0.080
551.51	0.079
551.72	0.078
551.92	0.077
552.13	0.076
552.33	0.075
552.54	0.074
552.75	0.073
552.95	0.072
553.16	0.071
553.36	0.070
553.57	0.069
553.78	0.068
553.98	0.067
554.19	0.066
554.39	0.065
554.60	0.064
554.80	0.064
555.01	0.063
555.22	0.062
555.42	0.062
555.63	0.061
555.83	0.060
556.04	0.059
556.25	0.058
556.45	0.058
556.66	0.057
556.86	0.057
557.07	0.055
557.27	0.055
557.48	0.054
557.68	0.053
557.89	0.053
558.10	0.052
558.30	0.051
558.51	0.051
558.71	0.050
558.92	0.050
559.12	0.048
559.33	0.047
559.54	0.047
559.74	0.046
559.95	0.046
560.15	0.045
560.36	0.045
560.56	0.044
560.77	0.043
560.97	0.043
561.18	0.042
561.38	0.042
561.59	0.042
561.79	0.041
562.00	0.041
562.21	0.041
562.41	0.040
562.62	0.039
562.82	0.039
563.03	0.039
563.23	0.038
563.44	0.038
563.64	0.037
563.85	0.037
564.05	0.036
564.26	0.036
564.46	0.035
564.67	0.035
564.87	0.035
565.08	0.034
565.28	0.034
565.49	0.034
565.69	0.033
565.90	0.033
566.10	0.032
566.31	0.032
566.51	0.031
566.72	0.031
566.92	0.031
567.13	0.030
567.33	0.030
567.54	0.029
567.74	0.029
567.95	0.029
568.15	0.029
568.36	0.028
568.56	0.028
568.77	0.028
568.97	0.028
569.18	0.028
569.38	0.027
569.59	0.027
569.79	0.027
570.00	0.027
570.20	0.026
570.41	0.026
570.61	0.026
570.82	0.026
571.02	0.025
571.23	0.024
571.43	0.024
571.64	0.024
571.84	0.024
572.05	0.024
572.25	0.024
572.45	0.024
572.66	0.024
572.86	0.023
573.07	0.023
573.27	0.023
573.48	0.023
573.68	0.023
573.89	0.023
574.09	0.023
574.30	0.023
574.50	0.022
574.70	0.022
574.91	0.022
575.11	0.022
575.32	0.022
575.52	0.021
575.73	0.022
575.93	0.021
576.14	0.021
576.34	0.020
576.54	0.020
576.75	0.021
576.95	0.021
577.16	0.021
577.36	0.021
577.57	0.020
577.77	0.020
577.97	0.020
578.18	0.020
578.38	0.020
578.59	0.020
578.79	0.020
579.00	0.019
579.20	0.019
579.40	0.018
579.61	0.018
579.81	0.018
580.02	0.019
580.22	0.019
580.42	0.018
580.63	0.018
580.83	0.018
581.04	0.018
581.24	0.018
581.45	0.019
581.65	0.019
581.85	0.019
582.06	0.019
582.26	0.019
582.47	0.018
582.67	0.019
582.87	0.018
583.08	0.019
583.28	0.018
583.48	0.018
583.69	0.018
583.89	0.019
584.10	0.018
584.30	0.018
584.50	0.019
584.71	0.019
584.91	0.019
585.12	0.019
585.32	0.018
585.52	0.018
585.73	0.018
585.93	0.018
586.13	0.018
586.34	0.018
586.54	0.018
586.75	0.017
586.95	0.017
587.15	0.017
587.36	0.017
587.56	0.017
587.76	0.017
587.97	0.017
588.17	0.017
588.37	0.017
588.58	0.017
588.78	0.017
588.98	0.017
589.19	0.017
589.39	0.017
589.60	0.017
589.80	0.018
590.00	0.018
590.21	0.018
590.41	0.017
590.61	0.017
590.82	0.017
591.02	0.017
591.22	0.016
591.43	0.016
591.63	0.016
591.83	0.016
592.04	0.016
592.24	0.015
592.44	0.016
592.65	0.016
592.85	0.016
593.05	0.016
593.26	0.016
593.46	0.016
593.66	0.016
593.86	0.016
594.07	0.016
594.27	0.016
594.47	0.016
594.68	0.016
594.88	0.016
595.08	0.016
595.29	0.016
595.49	0.016
595.69	0.016
595.90	0.016
596.10	0.016
596.30	0.016
596.50	0.016
596.71	0.016
596.91	0.016
597.11	0.016
597.32	0.016
597.52	0.016
597.72	0.016
597.93	0.016
598.13	0.016
598.33	0.016
598.53	0.016
598.74	0.016
598.94	0.016
599.14	0.016
599.35	0.016
599.55	0.016
599.75	0.016
599.95	0.016
600.16	0.015
600.36	0.015
600.56	0.015
600.76	0.015
600.97	0.016
601.17	0.015
601.37	0.015
601.58	0.015
601.78	0.015
601.98	0.015
602.18	0.015
602.39	0.015
602.59	0.016
602.79	0.016
602.99	0.015
603.20	0.015
603.40	0.015
603.60	0.015
603.80	0.015
604.01	0.015
604.21	0.015
604.41	0.015
604.61	0.015
604.82	0.015
605.02	0.015
605.22	0.015
605.42	0.015
605.62	0.015
605.83	0.015
606.03	0.015
606.23	0.015
606.43	0.015
606.64	0.015
606.84	0.015
607.04	0.015
607.24	0.015
607.45	0.016
607.65	0.015
607.85	0.015
608.05	0.015
608.25	0.015
608.46	0.015
608.66	0.016
608.86	0.015
609.06	0.015
609.26	0.015
609.47	0.015
609.67	0.015
609.87	0.015
610.07	0.015
610.28	0.016
610.48	0.015
610.68	0.016
610.88	0.015
611.08	0.015
611.29	0.015
611.49	0.015
611.69	0.015
611.89	0.015
612.09	0.015
612.29	0.015
612.50	0.015
612.70	0.014
612.90	0.014
613.10	0.014
613.30	0.014
613.51	0.014
613.71	0.015
613.91	0.015
614.11	0.015
614.31	0.015
614.51	0.015
614.72	0.015
614.92	0.015
615.12	0.015
615.32	0.015
615.52	0.015
615.72	0.015
615.93	0.015
616.13	0.015
616.33	0.015
616.53	0.015
616.73	0.015
616.93	0.015
617.14	0.015
617.34	0.015
617.54	0.015
617.74	0.015
617.94	0.015
618.14	0.016
618.34	0.016
618.55	0.016
618.75	0.016
618.95	0.016
619.15	0.016
619.35	0.016
619.55	0.016
619.75	0.016
619.96	0.016
620.16	0.015
620.36	0.015
620.56	0.015
620.76	0.014
620.96	0.014
621.16	0.014
621.36	0.014
621.57	0.014
621.77	0.014
621.97	0.014
622.17	0.014
622.37	0.014
622.57	0.014
622.77	0.014
622.97	0.014
623.18	0.014
623.38	0.014
623.58	0.014
623.78	0.014
623.98	0.014
624.18	0.014
624.38	0.014
624.58	0.014
624.78	0.014
624.98	0.014
625.19	0.014
625.39	0.014
625.59	0.015
625.79	0.015
625.99	0.015
626.19	0.015
626.39	0.014
626.59	0.015
626.79	0.015
626.99	0.015
627.19	0.015
627.40	0.015
627.60	0.015
627.80	0.015
628.00	0.015
628.20	0.015
628.40	0.015
628.60	0.015
628.80	0.015
629.00	0.015
629.20	0.015
629.40	0.015
629.60	0.015
629.80	0.015
630.00	0.015
630.20	0.015
630.41	0.015
630.61	0.015
630.81	0.015
631.01	0.015
631.21	0.015
631.41	0.014
631.61	0.014
631.81	0.014
632.01	0.015
632.21	0.014
632.41	0.014
632.61	0.014
632.81	0.014
633.01	0.014
633.21	0.015
633.41	0.015
633.61	0.015
633.81	0.015
634.01	0.015
634.21	0.015
634.41	0.014
634.61	0.015
634.81	0.014
635.01	0.015
635.22	0.015
635.42	0.014
635.62	0.014
635.82	0.015
636.02	0.015
636.22	0.014
636.42	0.014
636.62	0.014
636.82	0.014
637.02	0.014
637.22	0.014
637.42	0.014
637.62	0.014
637.82	0.014
638.02	0.014
638.22	0.014
638.42	0.014
638.62	0.014
638.82	0.014
639.02	0.014
639.22	0.014
639.42	0.014
639.62	0.014
639.82	0.014
640.02	0.014
640.22	0.014
640.42	0.014
640.62	0.014
640.82	0.014
641.02	0.014
641.22	0.015
641.42	0.015
641.61	0.015
641.81	0.015
642.01	0.014
642.21	0.015
642.41	0.015
642.61	0.015
642.81	0.015
643.01	0.015
643.21	0.015
643.41	0.015
643.61	0.015
643.81	0.015
644.01	0.015
644.21	0.015
644.41	0.015
644.61	0.015
644.81	0.015
645.01	0.015
645.21	0.015
645.41	0.014
645.61	0.014
645.81	0.014
646.01	0.014
646.21	0.014
646.40	0.015
646.60	0.015
646.80	0.015
647.00	0.015
647.20	0.015
647.40	0.015
647.60	0.015
647.80	0.015
648.00	0.015
648.20	0.015
648.40	0.015
648.60	0.015
648.80	0.015
649.00	0.015
649.20	0.015
649.39	0.015
649.59	0.015
649.79	0.015
649.99	0.015
650.19	0.015
650.39	0.015
650.59	0.015
650.79	0.015
650.99	0.015
651.19	0.015
651.39	0.014
651.58	0.014
651.78	0.014
651.98	0.014
652.18	0.014
652.38	0.015
652.58	0.014
652.78	0.015
652.98	0.014
653.18	0.014
653.38	0.014
653.57	0.015
653.77	0.015
653.97	0.015
654.17	0.015
654.37	0.014
654.57	0.014
654.77	0.014
654.97	0.014
655.16	0.014
655.36	0.014
655.56	0.014
655.76	0.014
655.96	0.014
656.16	0.014
656.36	0.014
656.56	0.014
656.75	0.014
656.95	0.014
657.15	0.014
657.35	0.014
657.55	0.014
657.75	0.014
657.95	0.014
658.14	0.014
658.34	0.014
658.54	0.014
658.74	0.014
658.94	0.014
659.14	0.014
659.34	0.014
659.53	0.014
659.73	0.013
659.93	0.013
660.13	0.013
660.33	0.013
660.53	0.014
660.72	0.014
660.92	0.014
661.12	0.014
661.32	0.014
661.52	0.014
661.72	0.014
661.91	0.014
662.11	0.014
662.31	0.014
662.51	0.014
662.71	0.014
662.90	0.014
663.10	0.014
663.30	0.014
663.50	0.014
663.70	0.014
663.90	0.014
664.09	0.014
664.29	0.014
664.49	0.014
664.69	0.014
664.89	0.014
665.08	0.014
665.28	0.014
665.48	0.014
665.68	0.014
665.88	0.014
666.07	0.014
666.27	0.014
666.47	0.014
666.67	0.014
666.87	0.014
667.06	0.014
667.26	0.014
667.46	0.014
667.66	0.014
667.85	0.014
668.05	0.014
668.25	0.014
668.45	0.014
668.65	0.015
668.84	0.014
669.04	0.014
669.24	0.014
669.44	0.013
669.63	0.013
669.83	0.013
670.03	0.013
670.23	0.013
670.42	0.013
670.62	0.012
670.82	0.012
671.02	0.012
671.22	0.012
671.41	0.013
671.61	0.013
671.81	0.013
672.01	0.013
672.20	0.013
672.40	0.013
672.60	0.013
672.80	0.013
672.99	0.013
673.19	0.013
673.39	0.013
673.58	0.013
673.78	0.013
673.98	0.013
674.18	0.014
674.37	0.014
674.57	0.014
674.77	0.014
674.97	0.014
675.16	0.014
675.36	0.014
675.56	0.014
675.75	0.013
675.95	0.014
676.15	0.014
676.35	0.013
676.54	0.013
676.74	0.013
676.94	0.013
677.13	0.013
677.33	0.013
677.53	0.013
677.73	0.013
677.92	0.013
678.12	0.013
678.32	0.013
678.51	0.013
678.71	0.013
678.91	0.014
679.11	0.014
679.30	0.014
679.50	0.013
679.70	0.013
679.89	0.014
680.09	0.014
680.29	0.014
680.48	0.014
680.68	0.013
680.88	0.013
681.07	0.013
681.27	0.013
681.47	0.013
681.66	0.014
681.86	0.013
682.06	0.014
682.25	0.014
682.45	0.013
682.65	0.013
682.84	0.013
683.04	0.014
683.24	0.014
683.43	0.013
683.63	0.013
683.83	0.014
684.02	0.014
684.22	0.013
684.42	0.013
684.61	0.014
684.81	0.014
685.01	0.014
685.20	0.013
685.40	0.014
685.60	0.014
685.79	0.013
685.99	0.013
686.19	0.013
686.38	0.013
686.58	0.013
686.77	0.013
686.97	0.013
687.17	0.013
687.36	0.013
687.56	0.013
687.76	0.013
687.95	0.013
688.15	0.013
688.34	0.013
688.54	0.013
688.74	0.013
688.93	0.013
689.13	0.013
689.33	0.013
689.52	0.013
689.72	0.013
689.91	0.013
690.11	0.013
690.31	0.013
690.50	0.013
690.70	0.013
690.89	0.013
691.09	0.013
691.29	0.013
691.48	0.013
691.68	0.013
691.87	0.013
692.07	0.013
692.27	0.013
692.46	0.013
692.66	0.013
692.85	0.014
693.05	0.014
693.25	0.013
693.44	0.013
693.64	0.013
693.83	0.013
694.03	0.013
694.22	0.013
694.42	0.013
694.62	0.013
694.81	0.013
695.01	0.013
695.20	0.013
695.40	0.013
695.59	0.013
695.79	0.013
695.99	0.014
696.18	0.013
696.38	0.014
696.57	0.013
696.77	0.013
696.96	0.013
697.16	0.013
697.36	0.013
697.55	0.013
697.75	0.013
697.94	0.013
698.14	0.013
698.33	0.013
698.53	0.013
698.72	0.013
698.92	0.013
699.11	0.013
699.31	0.013
699.51	0.013
699.70	0.013
699.90	0.013
700.09	0.013
700.29	0.013
700.48	0.013
700.68	0.013
700.87	0.013
701.07	0.013
701.26	0.014
701.46	0.013
701.65	0.013
701.85	0.013
702.04	0.013
702.24	0.013
702.43	0.013
702.63	0.013
702.82	0.013
703.02	0.013
703.21	0.012
703.41	0.012
703.60	0.012
703.80	0.012
703.99	0.012
704.19	0.013
704.38	0.013
704.58	0.013
704.77	0.013
704.97	0.013
705.16	0.013
705.36	0.013
705.55	0.013
705.75	0.013
705.94	0.013
706.14	0.013
706.33	0.012
706.53	0.012
706.72	0.012
706.92	0.012
707.11	0.013
707.31	0.013
707.50	0.013
707.70	0.012
707.89	0.012
708.09	0.012
708.28	0.012
708.48	0.013
708.67	0.012
708.86	0.012
709.06	0.012
709.25	0.012
709.45	0.012
709.64	0.012
709.84	0.013
710.03	0.013
710.23	0.013
710.42	0.013
710.62	0.013
710.81	0.013
711.00	0.013
711.20	0.013
711.39	0.013
711.59	0.013
711.78	0.013
711.98	0.013
712.17	0.012
712.37	0.012
712.56	0.012
712.75	0.012
712.95	0.012
713.14	0.012
713.34	0.012
713.53	0.012
713.73	0.012
713.92	0.012
714.11	0.011
714.31	0.011
714.50	0.011
714.70	0.011
714.89	0.011
715.08	0.011
715.28	0.012
715.47	0.012
715.67	0.012
715.86	0.012
716.06	0.012
716.25	0.012
716.44	0.012
716.64	0.012
716.83	0.011
717.03	0.011
717.22	0.011
717.41	0.011
717.61	0.011
717.80	0.010
717.99	0.010
718.19	0.010
718.38	0.010
718.58	0.010
718.77	0.010
718.96	0.010
719.16	0.010
719.35	0.010
719.55	0.010
719.74	0.010
719.93	0.010
720.13	0.010
720.32	0.011
720.51	0.011
720.71	0.011
720.90	0.010
721.10	0.010
721.29	0.010
721.48	0.010
721.68	0.010
721.87	0.009
722.06	0.009
722.26	0.009
722.45	0.009
722.64	0.008
722.84	0.008
723.03	0.009
723.22	0.009
723.42	0.009
723.61	0.009
723.80	0.009
724.00	0.009
724.19	0.009
724.38	0.009
724.58	0.010
724.77	0.010
724.96	0.009
725.16	0.009
725.35	0.009
725.54	0.009
725.74	0.009
725.93	0.009
726.12	0.008
726.32	0.009
726.51	0.008
726.70	0.008
726.90	0.008
727.09	0.007
727.28	0.007
727.48	0.007
727.67	0.007
727.86	0.007
728.06	0.007
728.25	0.008
728.44	0.007
728.64	0.007
728.83	0.007
729.02	0.007
729.21	0.007
729.41	0.007
729.60	0.007
729.79	0.007
729.99	0.007
730.18	0.006
730.37	0.006
730.56	0.006
730.76	0.006
730.95	0.006
731.14	0.006
731.34	0.006
731.53	0.006
731.72	0.006
731.91	0.006
732.11	0.006
732.30	0.006
732.49	0.006
732.69	0.006
732.88	0.006
733.07	0.006
733.26	0.006
733.46	0.005
733.65	0.005
733.84	0.005
734.03	0.005
734.23	0.005
734.42	0.005
734.61	0.005
734.80	0.005
735.00	0.005
735.19	0.005
735.38	0.005
735.57	0.005
735.77	0.005
735.96	0.005
736.15	0.005
736.34	0.005
736.54	0.005
736.73	0.005
736.92	0.005
737.11	0.005
737.31	0.004
737.50	0.004
737.69	0.004
737.88	0.004
738.07	0.005
738.27	0.005
738.46	0.005
738.65	0.005
738.84	0.005
739.04	0.005
739.23	0.004
739.42	0.005
739.61	0.005
739.80	0.005
740.00	0.004
740.19	0.004
740.38	0.004
740.57	0.004
740.76	0.004
740.96	0.004
741.15	0.004
741.34	0.005
741.53	0.004
741.72	0.004
741.92	0.004
742.11	0.005
742.30	0.005
742.49	0.005
742.68	0.005
742.88	0.005
743.07	0.005
743.26	0.005
743.45	0.005
743.64	0.005
743.84	0.005
744.03	0.005
744.22	0.005
744.41	0.005
744.60	0.006
744.79	0.006
744.99	0.005
745.18	0.006
745.37	0.005
745.56	0.005
745.75	0.005
745.94	0.005
746.14	0.005
746.33	0.005
746.52	0.005
746.71	0.005
746.90	0.005
747.09	0.005
747.28	0.005
747.48	0.005
747.67	0.005
747.86	0.005
748.05	0.005
748.24	0.006
748.43	0.006
748.62	0.006
748.82	0.006
749.01	0.006
749.20	0.006
749.39	0.006
749.58	0.007
749.77	0.006
749.96	0.006
750.16	0.006
750.35	0.007
750.54	0.007
750.73	0.007
750.92	0.007
751.11	0.006
751.30	0.007
751.49	0.006
751.68	0.006
751.88	0.006
752.07	0.006
752.26	0.006
752.45	0.006
752.64	0.006
752.83	0.006
753.02	0.006
753.21	0.007
753.40	0.007
753.60	0.007
753.79	0.007
753.98	0.007
754.17	0.008
754.36	0.008
754.55	0.008
754.74	0.008
754.93	0.008
755.12	0.008
755.31	0.008
755.50	0.007
755.70	0.008
755.89	0.008
756.08	0.008
756.27	0.008
756.46	0.008
756.65	0.009
756.84	0.009
757.03	0.009
757.22	0.009
757.41	0.010
757.60	0.010
757.79	0.010
757.98	0.010
758.17	0.009
758.36	0.009
758.56	0.009
758.75	0.009
758.94	0.009
759.13	0.008
759.32	0.008
759.51	0.008
759.70	0.008
759.89	0.007
760.08	0.007
760.27	0.007
760.46	0.007
760.65	0.007
760.84	0.008
761.03	0.007
761.22	0.007
761.41	0.007
761.60	0.007
761.79	0.008
761.98	0.008
762.17	0.008
762.36	0.008
762.55	0.008
762.74	0.008
762.93	0.008
763.12	0.008
763.31	0.008
763.50	0.008
763.69	0.008
763.88	0.008
764.07	0.008
764.26	0.008
764.45	0.008
764.64	0.007
764.83	0.007
765.02	0.007
765.21	0.007
765.40	0.007
765.59	0.007
765.78	0.007
765.97	0.007
766.16	0.007
766.35	0.007
766.54	0.007
766.73	0.007
766.92	0.007
767.11	0.007
767.30	0.007
767.49	0.007
767.68	0.007
767.87	0.006
768.06	0.006
768.25	0.006
768.44	0.006
768.63	0.006
768.82	0.005
769.01	0.005
769.20	0.005
769.39	0.005
769.58	0.005
769.77	0.005
769.96	0.005
770.15	0.005
770.34	0.005
770.53	0.005
770.72	0.004
770.91	0.005
771.10	0.005
771.29	0.005
771.47	0.005
771.66	0.005
771.85	0.005
772.04	0.005
772.23	0.005
772.42	0.005
772.61	0.005
772.80	0.005
772.99	0.005
773.18	0.005
773.37	0.005
773.56	0.005
773.75	0.005
773.94	0.005
774.13	0.005
774.31	0.005
774.50	0.006
774.69	0.006
774.88	0.005
775.07	0.005
775.26	0.006
775.45	0.005
775.64	0.005
775.83	0.005
776.02	0.005
776.21	0.005
776.40	0.004
776.58	0.004
776.77	0.004
776.96	0.004
777.15	0.004
777.34	0.005
777.53	0.004
777.72	0.004
777.91	0.004
778.10	0.004
778.28	0.004
778.47	0.004
778.66	0.004
778.85	0.004
779.04	0.004
779.23	0.004
779.42	0.003
779.61	0.003
779.79	0.004
779.98	0.003
780.17	0.003
780.36	0.004
780.55	0.004
780.74	0.004
780.93	0.004
781.12	0.004
781.30	0.004
781.49	0.004
781.68	0.004
781.87	0.004
782.06	0.004
782.25	0.004
782.44	0.004
782.62	0.004
782.81	0.005
783.00	0.004
783.19	0.004
783.38	0.004
783.57	0.004
783.75	0.004
783.94	0.004
784.13	0.004
784.32	0.004
784.51	0.004
784.70	0.004
784.88	0.004
785.07	0.004
785.26	0.004
785.45	0.004
785.64	0.004
785.83	0.004
786.01	0.004
786.20	0.004
786.39	0.004
786.58	0.004
786.77	0.004
786.95	0.004
787.14	0.003
787.33	0.004
787.52	0.004
787.71	0.004
787.90	0.004
788.08	0.004
788.27	0.004
788.46	0.004
788.65	0.004
788.84	0.005
789.02	0.005
789.21	0.005
789.40	0.004
789.59	0.005
789.77	0.005
789.96	0.005
790.15	0.005
790.34	0.005
790.53	0.005
790.71	0.005
790.90	0.005
791.09	0.005
791.28	0.004
791.46	0.005
791.65	0.005
791.84	0.005
792.03	0.005
792.22	0.005
792.40	0.004
792.59	0.005
792.78	0.005
792.97	0.005
793.15	0.005
793.34	0.005
793.53	0.005
793.72	0.005
793.90	0.006
794.09	0.005
794.28	0.005
794.47	0.006
794.65	0.006
794.84	0.006
795.03	0.006
795.22	0.006
795.40	0.006
795.59	0.006
795.78	0.006
795.97	0.006
796.15	0.006
796.34	0.006
796.53	0.006
796.71	0.006
796.90	0.006
797.09	0.006
797.28	0.006
797.46	0.006
797.65	0.007
797.84	0.006
798.02	0.006
798.21	0.007
798.40	0.007
798.59	0.007
798.77	0.007
798.96	0.007
799.15	0.007
799.33	0.006
799.52	0.007
799.71	0.007
799.90	0.007
800.08	0.007
800.27	0.007
800.46	0.007
800.64	0.007
800.83	0.006
801.02	0.006
801.20	0.006
801.39	0.006
801.58	0.006
801.76	0.006
801.95	0.006
802.14	0.006
802.32	0.006
802.51	0.006
802.70	0.006
802.88	0.006
803.07	0.006
803.26	0.006
803.44	0.006
803.63	0.006
803.82	0.006
804.00	0.006
804.19	0.006
804.38	0.006
804.56	0.006
804.75	0.007
804.94	0.006
805.12	0.007
805.31	0.007
805.50	0.007
805.68	0.007
805.87	0.007
806.06	0.007
806.24	0.007
806.43	0.007
806.62	0.007
806.80	0.007
806.99	0.007
807.17	0.007
807.36	0.007
807.55	0.007
807.73	0.007
807.92	0.007
808.11	0.007
808.29	0.007
808.48	0.007
808.66	0.007
808.85	0.007
809.04	0.007
809.22	0.007
809.41	0.007
809.59	0.007
809.78	0.007
809.97	0.007
810.15	0.007
810.34	0.007
810.53	0.007
810.71	0.007
810.90	0.007
811.08	0.007
811.27	0.007
811.45	0.007
811.64	0.007
811.83	0.007
812.01	0.007
812.20	0.007
812.38	0.007
812.57	0.007
812.76	0.007
812.94	0.007
813.13	0.007
813.31	0.006
813.50	0.006
813.68	0.006
813.87	0.006
814.06	0.006
814.24	0.006
814.43	0.006
814.61	0.006
814.80	0.007
814.98	0.006
815.17	0.006
815.36	0.007
815.54	0.007
815.73	0.007
815.91	0.007
816.10	0.007
816.28	0.007
816.47	0.007
816.65	0.007
816.84	0.007
817.03	0.007
817.21	0.007
817.40	0.007
817.58	0.006
817.77	0.006
817.95	0.006
818.14	0.006
818.32	0.006
818.51	0.006
818.69	0.006
818.88	0.006
819.06	0.006
819.25	0.006
819.43	0.006
819.62	0.006
819.80	0.006
819.99	0.006
820.18	0.006
820.36	0.006
820.55	0.006
820.73	0.006
820.92	0.006
821.10	0.006
821.29	0.006
821.47	0.006
821.66	0.006
821.84	0.007
822.03	0.007
822.21	0.007
822.40	0.007
822.58	0.007
822.77	0.007
822.95	0.007
823.14	0.007
823.32	0.007
823.50	0.007
823.69	0.007
823.87	0.007
824.06	0.006
824.24	0.006
824.43	0.006
824.61	0.005
824.80	0.006
824.98	0.005
825.17	0.005
825.35	0.005
825.54	0.005
825.72	0.005
825.91	0.005
826.09	0.005
826.28	0.005
826.46	0.005
826.64	0.005
826.83	0.004
827.01	0.004
827.20	0.004
827.38	0.005
827.57	0.004
827.75	0.004
827.94	0.004
828.12	0.004
828.31	0.004
828.49	0.004
828.67	0.003
828.86	0.003
829.04	0.003
829.23	0.003
829.41	0.002
829.60	0.002
829.78	0.002
829.96	0.002
830.15	0.002
830.33	0.002
830.52	0.002
830.70	0.002
830.88	0.002
831.07	0.002
831.25	0.002
831.44	0.002
831.62	0.002
831.81	0.002
831.99	0.002
832.17	0.002
832.36	0.002
832.54	0.002
832.73	0.002
832.91	0.002
833.09	0.002
833.28	0.002
833.46	0.002
833.65	0.002
833.83	0.001
834.01	0.001
834.20	0.001
834.38	0.002
834.56	0.002
834.75	0.002
834.93	0.002
835.12	0.002
835.30	0.002
835.48	0.001
835.67	0.001
835.85	0.001
836.03	0.001
836.22	0.001
836.40	0.000
836.59	0.000
836.77	0.000
836.95	0.000
837.14	-0.000
837.32	0.000
837.50	0.000
837.69	0.001
837.87	0.001
838.05	0.001
838.24	0.001
838.42	0.001
838.60	0.001
838.79	0.001
838.97	0.001
839.15	0.001
839.34	0.001
839.52	0.001
839.70	0.001
839.89	0.001
840.07	0.001
840.25	0.001
840.44	0.000
840.62	0.000
840.80	0.000
840.99	0.000
841.17	0.000
841.35	0.000
841.54	0.000
841.72	0.000
841.90	0.000
842.09	-0.000
842.27	-0.000
842.45	-0.000
842.64	-0.000
842.82	-0.000
843.00	-0.001
843.19	-0.001
843.37	-0.001
843.55	-0.001
843.73	-0.001
843.92	-0.001
844.10	-0.001
844.28	-0.001
844.47	-0.001
844.65	-0.001
844.83	-0.000
845.01	-0.000
845.20	-0.000
845.38	-0.000
845.56	-0.000
845.75	-0.000
845.93	-0.000
846.11	-0.000
846.29	-0.000
846.48	-0.000
846.66	-0.000
846.84	-0.000
847.02	-0.000
847.21	-0.000
847.39	-0.000
847.57	-0.000
847.76	-0.000
847.94	0.000
848.12	-0.000
848.30	-0.000
848.49	-0.001
848.67	-0.001
848.85	-0.001
849.03	-0.001
849.22	-0.001
849.40	-0.001
849.58	-0.001
849.76	-0.001
849.95	-0.001
850.13	-0.001
850.31	-0.001
850.49	-0.001
850.67	-0.001
850.86	-0.001
851.04	-0.001
851.22	-0.001
851.40	-0.001
851.59	-0.001
851.77	-0.001
851.95	-0.001
852.13	-0.001
852.31	-0.001
852.50	-0.001
852.68	-0.001
852.86	-0.001
853.04	-0.002
853.23	-0.002
853.41	-0.002
853.59	-0.002
853.77	-0.002
853.95	-0.002
854.14	-0.002
854.32	-0.002
854.50	-0.002
854.68	-0.002
854.86	-0.002
855.04	-0.002
855.23	-0.002
855.41	-0.001
855.59	-0.001
855.77	-0.002
855.95	-0.002
856.14	-0.002
856.32	-0.002
856.50	-0.002
856.68	-0.002
856.86	-0.002
857.04	-0.002
857.23	-0.002
857.41	-0.002
857.59	-0.002
857.77	-0.002
857.95	-0.002
858.13	-0.003
858.32	-0.002
858.50	-0.002
858.68	-0.002
858.86	-0.002
859.04	-0.002
859.22	-0.002
859.41	-0.002
859.59	-0.002
859.77	-0.002
859.95	-0.002
860.13	-0.002
860.31	-0.002
860.49	-0.002
860.68	-0.002
860.86	-0.002
861.04	-0.002
861.22	-0.002
861.40	-0.002
861.58	-0.002
861.76	-0.002
861.94	-0.002
862.13	-0.002
862.31	-0.002
862.49	-0.001
862.67	-0.002
862.85	-0.002
863.03	-0.002
863.21	-0.002
863.39	-0.002
863.57	-0.002
863.76	-0.002
863.94	-0.003
864.12	-0.003
864.30	-0.003
864.48	-0.003
864.66	-0.003
864.84	-0.003
865.02	-0.003
865.20	-0.003
865.38	-0.003
865.57	-0.003
865.75	-0.002
865.93	-0.002
866.11	-0.002
866.29	-0.003
866.47	-0.002
866.65	-0.002
866.83	-0.002
867.01	-0.002
867.19	-0.002
867.37	-0.002
867.55	-0.002
867.73	-0.002
867.92	-0.002
868.10	-0.002
868.28	-0.001
868.46	-0.001
868.64	-0.001
868.82	-0.001
869.00	-0.001
869.18	-0.001
869.36	-0.001
869.54	-0.000
869.72	-0.000
869.90	-0.000
870.08	-0.000
870.26	-0.000
870.44	0.000
870.62	0.000
870.80	0.001
870.98	0.001
871.16	0.001
871.34	0.001
871.53	0.001
871.71	0.001
871.89	0.001
872.07	0.001
872.25	0.001
872.43	0.002
872.61	0.001
872.79	0.002
872.97	0.001
873.15	0.001
873.33	0.001
873.51	0.002
873.69	0.002
873.87	0.002
874.05	0.002
874.23	0.002
874.41	0.002
874.59	0.002
874.77	0.002
874.95	0.002
875.13	0.002
875.31	0.002
875.49	0.002
875.67	0.002
875.85	0.002
876.03	0.002
876.21	0.002
876.39	0.002
876.57	0.002
876.75	0.002
876.93	0.002
877.11	0.002
877.29	0.001
877.47	0.001
877.65	0.001
877.82	0.001
878.00	0.001
878.18	0.001
878.36	0.001
878.54	0.001
878.72	0.001
878.90	0.001
879.08	0.001
879.26	0.002
879.44	0.001
879.62	0.001
879.80	0.001
879.98	0.001
880.16	0.001
880.34	0.001
880.52	0.001
880.70	0.001
880.88	0.001
881.06	0.001
881.24	0.000
881.42	0.000
881.59	-0.000
881.77	-0.000
881.95	-0.000
882.13	-0.000
882.31	-0.001
882.49	-0.001
882.67	-0.001
882.85	-0.001
883.03	-0.001
883.21	-0.001
883.39	-0.001
883.57	-0.000
883.75	-0.000
883.92	0.000
884.10	-0.000
884.28	-0.000
884.46	-0.000
884.64	-0.000
884.82	-0.001
885.00	-0.000
885.18	-0.000
885.36	-0.000
885.54	-0.001
885.71	-0.001
885.89	-0.001
886.07	-0.001
886.25	-0.001
886.43	-0.001
886.61	-0.000
886.79	-0.000
886.97	-0.000
887.15	-0.001
887.32	-0.000
887.50	-0.000
887.68	-0.001
887.86	-0.001
888.04	-0.001
888.22	-0.001
888.40	-0.001
888.57	-0.001
888.75	-0.001
888.93	-0.002
889.11	-0.002
889.29	-0.002
889.47	-0.001
889.65	-0.001
889.82	-0.001
890.00	-0.001
890.18	-0.000
890.36	-0.000
890.54	-0.000
890.72	0.000
890.90	0.001
891.07	0.001
891.25	0.001
891.43	0.001
891.61	0.001
891.79	0.001
891.97	0.001
892.14	0.001
892.32	0.002
892.50	0.002
892.68	0.002
892.86	0.002
893.03	0.002
893.21	0.002
893.39	0.002
893.57	0.003
893.75	0.003
893.93	0.003
894.10	0.003
894.28	0.003
894.46	0.003
894.64	0.003
894.82	0.003
894.99	0.003
895.17	0.003
895.35	0.003
895.53	0.003
895.71	0.002
895.88	0.002
896.06	0.002
896.24	0.002
896.42	0.002
896.59	0.002
896.77	0.001
896.95	0.001
897.13	0.001
897.31	0.001
897.48	0.001
897.66	0.002
897.84	0.002
898.02	0.002
898.19	0.002
898.37	0.002
898.55	0.002
898.73	0.002
898.91	0.002
899.08	0.002
899.26	0.002
899.44	0.003
899.62	0.002
899.79	0.002
899.97	0.003
900.15	0.002
900.33	0.002
900.50	0.002
900.68	0.003
900.86	0.003
901.04	0.003
901.21	0.003
901.39	0.003
901.57	0.003
901.74	0.003
901.92	0.003
902.10	0.003
902.28	0.003
902.45	0.003
902.63	0.003
902.81	0.003
902.99	0.004
903.16	0.003
903.34	0.003
903.52	0.004
903.69	0.004
903.87	0.004
904.05	0.004
904.22	0.005
904.40	0.005
904.58	0.005
904.76	0.005
904.93	0.005
905.11	0.006
905.29	0.006
905.46	0.006
905.64	0.006
905.82	0.006
905.99	0.006
906.17	0.007
906.35	0.007
906.53	0.007
906.70	0.007
906.88	0.007
907.06	0.008
907.23	0.008
907.41	0.008
907.59	0.009
907.76	0.009
907.94	0.009
908.12	0.009
908.29	0.010
908.47	0.010
908.65	0.011
908.82	0.011
909.00	0.011
909.18	0.011
909.35	0.012
909.53	0.012
909.71	0.012
909.88	0.012
910.06	0.013
910.23	0.013
910.41	0.013
910.59	0.014
910.76	0.014
910.94	0.014
911.12	0.015
911.29	0.015
911.47	0.016
911.65	0.016
911.82	0.016
912.00	0.016
912.17	0.017
912.35	0.017
912.53	0.017
912.70	0.017
912.88	0.017
913.06	0.017
913.23	0.017
913.41	0.017
913.58	0.018
913.76	0.018
913.94	0.019
914.11	0.019
914.29	0.019
914.46	0.019
914.64	0.019
914.82	0.020
914.99	0.020
915.17	0.021
915.34	0.021
915.52	0.021
915.70	0.021
915.87	0.022
916.05	0.022
916.22	0.022
916.40	0.023
916.57	0.023
916.75	0.023
916.93	0.023
917.10	0.023
917.28	0.023
917.45	0.024
917.63	0.024
917.80	0.024
917.98	0.024
918.16	0.025
918.33	0.025
918.51	0.025
918.68	0.026
918.86	0.026
919.03	0.026
919.21	0.027
919.39	0.027
919.56	0.028
919.74	0.028
919.91	0.028
920.09	0.028
920.26	0.029
920.44	0.029
920.61	0.029
920.79	0.030
920.96	0.031
921.14	0.031
921.31	0.031
921.49	0.031
921.67	0.032
921.84	0.032
922.02	0.033
922.19	0.033
922.37	0.033
922.54	0.034
922.72	0.034
922.89	0.034
923.07	0.034
923.24	0.034
923.42	0.034
923.59	0.035
923.77	0.035
923.94	0.035
924.12	0.035
924.29	0.036
924.47	0.036
924.64	0.036
924.82	0.036
924.99	0.036
925.17	0.036
925.34	0.037
925.52	0.037
925.69	0.037
925.87	0.038
926.04	0.038
926.22	0.038
926.39	0.038
926.57	0.038
926.74	0.038
926.91	0.038
927.09	0.038
927.26	0.038
927.44	0.037
927.61	0.037
927.79	0.037
927.96	0.037
928.14	0.037
928.31	0.036
928.49	0.036
928.66	0.036
928.84	0.035
929.01	0.035
929.18	0.034
929.36	0.034
929.53	0.034
929.71	0.034
929.88	0.034
930.06	0.033
930.23	0.033
930.41	0.032
930.58	0.032
930.75	0.032
930.93	0.031
931.10	0.030
931.28	0.030
931.45	0.029
931.63	0.028
931.80	0.027
931.97	0.026
932.15	0.026
932.32	0.025
932.50	0.024
932.67	0.023
932.84	0.022
933.02	0.021
933.19	0.021
933.37	0.020
933.54	0.019
933.71	0.018
933.89	0.017
934.06	0.016
934.24	0.015
934.41	0.014
934.58	0.013
934.76	0.011
934.93	0.010
935.11	0.009
935.28	0.008
935.45	0.007
935.63	0.005
935.80	0.004
935.98	0.002
936.15	0.001
936.32	-0.000
936.50	-0.002
936.67	-0.003
936.84	-0.004
937.02	-0.006
937.19	-0.008
937.36	-0.009
937.54	-0.010
937.71	-0.011
937.89	-0.013
938.06	-0.014
938.23	-0.015
938.41	-0.017
938.58	-0.018
938.75	-0.020
938.93	-0.021
939.10	-0.021
939.27	-0.023
939.45	-0.024
939.62	-0.026
939.79	-0.028
939.97	-0.029
940.14	-0.031
940.31	-0.032
940.49	-0.033
940.66	-0.034
940.83	-0.036
941.01	-0.038
941.18	-0.039
941.35	-0.040
941.53	-0.041
941.70	-0.042
941.87	-0.044
942.05	-0.045
942.22	-0.046
942.39	-0.048
942.57	-0.049
942.74	-0.050
942.91	-0.051
943.08	-0.052
943.26	-0.053
943.43	-0.055
943.60	-0.056
943.78	-0.058
943.95	-0.059
944.12	-0.060
944.29	-0.061
944.47	-0.063
944.64	-0.064
944.81	-0.065
944.99	-0.067
945.16	-0.068
945.33	-0.069
945.50	-0.070
945.68	-0.071
945.85	-0.072
946.02	-0.074
946.20	-0.075
946.37	-0.076
946.54	-0.077
946.71	-0.079
946.89	-0.080
947.06	-0.081
947.23	-0.083
947.40	-0.084
947.58	-0.085
947.75	-0.087
947.92	-0.088
948.09	-0.089
948.27	-0.091
948.44	-0.092
948.61	-0.093
948.78	-0.094
948.96	-0.096
949.13	-0.097
949.30	-0.098
949.47	-0.099
949.65	-0.101
949.82	-0.102
949.99	-0.103
950.16	-0.105
950.33	-0.106
950.51	-0.108
950.68	-0.110
950.85	-0.111
951.02	-0.113
951.20	-0.115
951.37	-0.117
951.54	-0.118
951.71	-0.119
951.88	-0.121
952.06	-0.122
952.23	-0.123
952.40	-0.125
952.57	-0.126
952.74	-0.127
952.92	-0.129
953.09	-0.131
953.26	-0.131
953.43	-0.133
953.60	-0.134
953.77	-0.135
953.95	-0.137
954.12	-0.138
954.29	-0.139
954.46	-0.141
954.63	-0.142
954.81	-0.143
954.98	-0.144
955.15	-0.146
955.32	-0.147
955.49	-0.148
955.66	-0.150
955.84	-0.151
956.01	-0.152
956.18	-0.154
956.35	-0.155
956.52	-0.156
956.69	-0.157
956.87	-0.158
957.04	-0.159
957.21	-0.160
957.38	-0.161
957.55	-0.163
957.72	-0.163
957.89	-0.164
958.07	-0.165
958.24	-0.166
958.41	-0.167
958.58	-0.168
958.75	-0.169
958.92	-0.170
959.09	-0.170
959.26	-0.171
959.44	-0.171
959.61	-0.172
959.78	-0.173
959.95	-0.174
960.12	-0.174
960.29	-0.175
960.46	-0.176
960.63	-0.177
960.81	-0.177
960.98	-0.178
961.15	-0.179
961.32	-0.179
961.49	-0.179
961.66	-0.180
961.83	-0.181
962.00	-0.181
962.17	-0.182
962.34	-0.182
962.52	-0.182
962.69	-0.182
962.86	-0.183
963.03	-0.183
963.20	-0.184
963.37	-0.184
963.54	-0.184
963.71	-0.184
963.88	-0.185
964.05	-0.185
964.22	-0.185
964.39	-0.186
964.56	-0.186
964.74	-0.186
964.91	-0.186
965.08	-0.186
965.25	-0.186
965.42	-0.186
965.59	-0.187
965.76	-0.187
965.93	-0.187
966.10	-0.187
966.27	-0.187
966.44	-0.188
966.61	-0.188
966.78	-0.188
966.95	-0.188
967.12	-0.188
967.29	-0.188
967.46	-0.188
967.63	-0.188
967.80	-0.189
967.97	-0.189
968.14	-0.189
968.32	-0.189
968.49	-0.189
968.66	-0.190
968.83	-0.190
969.00	-0.190
969.17	-0.190
969.34	-0.190
969.51	-0.190
969.68	-0.191
969.85	-0.191
970.02	-0.191
970.19	-0.191
970.36	-0.191
970.53	-0.191
970.70	-0.192
970.87	-0.192
971.04	-0.192
971.21	-0.192
971.38	-0.192
971.55	-0.192
971.72	-0.192
971.89	-0.193
972.06	-0.193
972.23	-0.193
972.40	-0.193
972.57	-0.194
972.74	-0.193
972.91	-0.194
973.07	-0.194
973.24	-0.194
973.41	-0.194
973.58	-0.194
973.75	-0.194
973.92	-0.194
974.09	-0.194
974.26	-0.194
974.43	-0.193
974.60	-0.194
974.77	-0.194
974.94	-0.194
975.11	-0.194
975.28	-0.194
975.45	-0.193
975.62	-0.193
975.79	-0.193
975.96	-0.193
976.13	-0.194
976.30	-0.194
976.47	-0.194
976.64	-0.194
976.80	-0.194
976.97	-0.194
977.14	-0.193
977.31	-0.193
977.48	-0.193
977.65	-0.193
977.82	-0.193
977.99	-0.193
978.16	-0.193
978.33	-0.193
978.50	-0.193
978.67	-0.192
978.83	-0.192
979.00	-0.192
979.17	-0.192
979.34	-0.192
979.51	-0.192
979.68	-0.192
979.85	-0.191
980.02	-0.191
980.19	-0.191
980.36	-0.191
980.52	-0.191
980.69	-0.191
980.86	-0.191
981.03	-0.190
981.20	-0.190
981.37	-0.190
981.54	-0.189
981.71	-0.189
981.88	-0.189
982.04	-0.188
982.21	-0.188
982.38	-0.188
982.55	-0.188
982.72	-0.188
982.89	-0.188
983.06	-0.188
983.22	-0.188
983.39	-0.187
983.56	-0.187
983.73	-0.187
983.90	-0.187
984.07	-0.187
984.24	-0.186
984.40	-0.186
984.57	-0.186
984.74	-0.186
984.91	-0.185
985.08	-0.185
985.25	-0.184
985.41	-0.184
985.58	-0.184
985.75	-0.184
985.92	-0.183
986.09	-0.183
986.26	-0.183
986.42	-0.183
986.59	-0.182
986.76	-0.182
986.93	-0.182
987.10	-0.183
987.27	-0.182
987.43	-0.182
987.60	-0.181
987.77	-0.180
987.94	-0.180
988.11	-0.179
988.27	-0.179
988.44	-0.179
988.61	-0.178
988.78	-0.177
988.95	-0.177
989.11	-0.177
989.28	-0.177
989.45	-0.177
989.62	-0.177
989.79	-0.176
989.95	-0.176
990.12	-0.175
990.29	-0.175
990.46	-0.175
990.62	-0.175
990.79	-0.175
990.96	-0.174
991.13	-0.174
991.30	-0.173
991.46	-0.172
991.63	-0.172
991.80	-0.172
991.97	-0.172
992.13	-0.171
992.30	-0.171
992.47	-0.170
992.64	-0.170
992.80	-0.170
992.97	-0.169
993.14	-0.169
993.31	-0.168
993.47	-0.168
993.64	-0.168
993.81	-0.168
993.98	-0.167
994.14	-0.167
994.31	-0.167
994.48	-0.166
994.64	-0.166
994.81	-0.166
994.98	-0.165
995.15	-0.165
995.31	-0.164
995.48	-0.164
995.65	-0.162
995.82	-0.162
995.98	-0.162
996.15	-0.161
996.32	-0.161
996.48	-0.161
996.65	-0.160
996.82	-0.159
996.99	-0.159
997.15	-0.159
997.32	-0.158
997.49	-0.158
997.65	-0.157
997.82	-0.157
997.99	-0.156
998.15	-0.155
998.32	-0.154
998.49	-0.154
998.65	-0.154
998.82	-0.154
998.99	-0.153
999.15	-0.153
999.32	-0.153
999.49	-0.152
999.65	-0.152
999.82	-0.151
999.99	-0.151
1000.15	-0.151
1000.32	-0.151
1000.49	-0.151
1000.65	-0.150
1000.82	-0.149
1000.99	-0.148
1001.15	-0.148
1001.32	-0.147
1001.49	-0.147
1001.65	-0.147
1001.82	-0.146
1001.99	-0.145
1002.15	-0.144
1002.32	-0.144
1002.49	-0.143
1002.65	-0.142
1002.82	-0.141
1002.99	-0.141
1003.15	-0.142
1003.32	-0.141
1003.48	-0.140
1003.65	-0.140
1003.82	-0.140
1003.98	-0.139
1004.15	-0.139
1004.32	-0.138
1004.48	-0.138
1004.65	-0.138
1004.81	-0.138
1004.98	-0.136
1005.15	-0.136
1005.31	-0.135
1005.48	-0.135
1005.64	-0.134
1005.81	-0.134
1005.98	-0.134
1006.14	-0.133
1006.31	-0.132
1006.47	-0.131
1006.64	-0.131
1006.81	-0.131
1006.97	-0.130
1007.14	-0.130
1007.30	-0.129
1007.47	-0.128
1007.63	-0.128
1007.80	-0.127
1007.97	-0.127
1008.13	-0.127
1008.30	-0.126
1008.46	-0.126
1008.63	-0.125
1008.79	-0.124
1008.96	-0.124
1009.13	-0.123
1009.29	-0.123
1009.46	-0.122
1009.62	-0.121
1009.79	-0.121
1009.95	-0.120
1010.12	-0.120
1010.28	-0.119
1010.45	-0.119
1010.62	-0.119
1010.78	-0.117
1010.95	-0.117
1011.11	-0.115
1011.28	-0.116
1011.44	-0.115
1011.61	-0.114
1011.77	-0.113
1011.94	-0.113
1012.10	-0.113
1012.27	-0.112
1012.43	-0.111
1012.60	-0.111
1012.76	-0.111
1012.93	-0.111
1013.10	-0.110
1013.26	-0.110
1013.43	-0.110
1013.59	-0.109
1013.76	-0.109
1013.92	-0.107
1014.09	-0.107
1014.25	-0.106
1014.42	-0.105
1014.58	-0.104
1014.75	-0.104
1014.91	-0.103
1015.08	-0.102
1015.24	-0.101
1015.41	-0.101
1015.57	-0.100
1015.73	-0.100
1015.90	-0.100
1016.06	-0.100
1016.23	-0.100
1016.39	-0.099
1016.56	-0.099
1016.72	-0.099
1016.89	-0.099
1017.05	-0.099
1017.22	-0.098
1017.38	-0.097
1017.55	-0.096
1017.71	-0.095
1017.88	-0.094
1018.04	-0.094
1018.21	-0.093
1018.37	-0.092
1018.53	-0.091
1018.70	-0.091
1018.86	-0.090
1019.03	-0.090
1019.19	-0.090
1019.36	-0.090
1019.52	-0.090
1019.69	-0.090
1019.85	-0.090
1020.01	-0.089
1020.18	-0.089
1020.34	-0.088
1020.51	-0.088
1020.67	-0.089
1020.84	-0.088
1021.00	-0.087
1021.16	-0.086
1021.33	-0.086
1021.49	-0.085
1021.66	-0.085
1021.82	-0.085
1021.98	-0.085
1022.15	-0.085
1022.31	-0.084
1022.48	-0.083
1022.64	-0.083
1022.80	-0.083
1022.97	-0.082
1023.13	-0.081
1023.30	-0.081
1023.46	-0.081
1023.62	-0.081
1023.79	-0.081
1023.95	-0.081
1024.12	-0.080
1024.28	-0.080
1024.44	-0.081
1024.61	-0.080
1024.77	-0.080
1024.93	-0.079
1025.10	-0.079
1025.26	-0.078
1025.43	-0.077
1025.59	-0.076
1025.75	-0.075
1025.92	-0.075
1026.08	-0.075
1026.24	-0.074
1026.41	-0.074
1026.57	-0.072
1026.73	-0.073
1026.90	-0.073
1027.06	-0.072
1027.23	-0.072
1027.39	-0.072
1027.55	-0.072
1027.72	-0.072
1027.88	-0.071
1028.04	-0.070
1028.21	-0.069
1028.37	-0.069
1028.53	-0.068
1028.70	-0.067
1028.86	-0.067
1029.02	-0.066
1029.19	-0.066
1029.35	-0.065
1029.51	-0.064
1029.67	-0.064
1029.84	-0.062
1030.00	-0.062
1030.16	-0.062
1030.33	-0.062
1030.49	-0.060
1030.65	-0.061
1030.82	-0.061
1030.98	-0.060
1031.14	-0.060
1031.31	-0.059
1031.47	-0.058
1031.63	-0.059
1031.79	-0.058
1031.96	-0.060
1032.12	-0.059
1032.28	-0.059
1032.45	-0.058
1032.61	-0.059
1032.77	-0.058
1032.93	-0.057
1033.10	-0.056
1033.26	-0.054
1033.42	-0.054
1033.58	-0.053
1033.75	-0.050
1033.91	-0.049
1034.07	-0.049
1034.24	-0.049
1034.40	-0.047
1034.56	-0.047
1034.72	-0.046
1034.89	-0.047
1035.05	-0.048
1035.21	-0.047
1035.37	-0.048
1035.54	-0.049
1035.70	-0.048
1035.86	-0.047
1036.02	-0.047
1036.19	-0.046
1036.35	-0.046
1036.51	-0.046
1036.67	-0.045
1036.83	-0.045
1037.00	-0.045
1037.16	-0.044
1037.32	-0.044
1037.48	-0.045
1037.65	-0.045
1037.81	-0.044
1037.97	-0.044
1038.13	-0.044
1038.29	-0.043
1038.46	-0.043
1038.62	-0.043
1038.78	-0.043
1038.94	-0.044
1039.10	-0.043
1039.27	-0.042
1039.43	-0.043
1039.59	-0.041
1039.75	-0.042
1039.91	-0.041
1040.08	-0.042
1040.24	-0.043
1040.40	-0.043
1040.56	-0.042
1040.72	-0.042
1040.89	-0.041
1041.05	-0.041
1041.21	-0.040
1041.37	-0.040
1041.53	-0.038
1041.69	-0.038
1041.86	-0.037
1042.02	-0.035
1042.18	-0.034
1042.34	-0.034
1042.50	-0.034
1042.66	-0.034
1042.83	-0.033
1042.99	-0.033
1043.15	-0.033
1043.31	-0.034
1043.47	-0.036
1043.63	-0.036
1043.79	-0.037
1043.96	-0.037
1044.12	-0.037
1044.28	-0.037
1044.44	-0.037
1044.60	-0.038
1044.76	-0.038
1044.92	-0.038
1045.09	-0.037
1045.25	-0.035
1045.41	-0.036
1045.57	-0.035
1045.73	-0.034
1045.89	-0.034
1046.05	-0.033
1046.21	-0.040
1046.38	-0.030
1046.54	-0.032
1046.70	-0.036
1046.86	-0.021
>>>>>End Processed Spectral Data<<<<<
