SpectraSuite Data File
++++++++++++++++++++++++++++++++++++
Date: Mon May 06 13:26:56 CDT 2013
User: Students
Dark Spectrum Present: Yes
Reference Spectrum Present: Yes
Number of Sampled Component Spectra: 1
Spectrometers: USB4H00887
Integration Time (usec): 50000 (USB4H00887)
Spectra Averaged: 10 (USB4H00887)
Boxcar Smoothing: 5 (USB4H00887)
Correct for Electrical Dark: No (USB4H00887)
Strobe/Lamp Enabled: No (USB4H00887)
Correct for Detector Non-linearity: No (USB4H00887)
Correct for Stray Light: No (USB4H00887)
Number of Pixels in Processed Spectrum: 3648
>>>>>Begin Processed Spectral Data<<<<<
345.83	-0.000
346.05	-0.000
346.26	-0.000
346.48	0.512
346.70	-0.000
346.92	-0.000
347.14	-0.000
347.35	0.624
347.57	0.147
347.79	0.263
348.01	0.003
348.23	0.077
348.44	-0.089
348.66	-0.025
348.88	0.017
349.10	-0.012
349.32	0.058
349.53	0.033
349.75	0.016
349.97	-0.018
350.19	-0.053
350.41	-0.063
350.62	-0.067
350.84	-0.067
351.06	-0.066
351.28	-0.031
351.50	-0.029
351.71	-0.051
351.93	-0.092
352.15	-0.063
352.37	-0.083
352.58	-0.055
352.80	-0.047
353.02	-0.024
353.24	-0.031
353.46	-0.057
353.67	-0.114
353.89	-0.099
354.11	-0.068
354.33	-0.074
354.54	-0.080
354.76	-0.031
354.98	-0.005
355.20	-0.028
355.41	-0.014
355.63	-0.032
355.85	-0.017
356.07	-0.028
356.28	-0.030
356.50	-0.036
356.72	0.004
356.94	-0.001
357.15	-0.002
357.37	-0.024
357.59	-0.032
357.81	-0.073
358.02	-0.024
358.24	-0.007
358.46	-0.018
358.68	-0.012
358.89	-0.021
359.11	-0.056
359.33	-0.050
359.55	-0.048
359.76	-0.036
359.98	0.017
360.20	0.024
360.42	-0.006
360.63	-0.038
360.85	-0.008
361.07	0.004
361.29	0.036
361.50	0.050
361.72	0.038
361.94	0.009
362.15	-0.006
362.37	-0.049
362.59	-0.019
362.81	-0.022
363.02	-0.030
363.24	-0.028
363.46	-0.000
363.68	-0.026
363.89	-0.022
364.11	-0.016
364.33	-0.018
364.54	0.015
364.76	0.024
364.98	0.004
365.20	0.001
365.41	0.029
365.63	0.028
365.85	-0.021
366.06	-0.015
366.28	-0.023
366.50	-0.013
366.71	0.026
366.93	-0.013
367.15	0.011
367.37	0.015
367.58	0.016
367.80	0.030
368.02	0.044
368.23	0.076
368.45	0.059
368.67	0.088
368.88	0.084
369.10	0.084
369.32	0.109
369.53	0.087
369.75	0.096
369.97	0.123
370.19	0.080
370.40	0.087
370.62	0.058
370.84	0.062
371.05	0.064
371.27	0.056
371.49	0.057
371.70	0.052
371.92	0.063
372.14	0.050
372.35	0.034
372.57	0.052
372.79	-0.001
373.00	-0.005
373.22	0.005
373.44	-0.016
373.65	0.005
373.87	-0.004
374.09	-0.012
374.30	-0.008
374.52	0.012
374.74	0.023
374.95	0.021
375.17	0.058
375.39	0.065
375.60	0.055
375.82	0.048
376.04	0.040
376.25	0.011
376.47	0.038
376.68	0.014
376.90	0.025
377.12	0.032
377.33	0.024
377.55	0.050
377.77	0.060
377.98	0.072
378.20	0.094
378.42	0.095
378.63	0.129
378.85	0.119
379.07	0.127
379.28	0.120
379.50	0.130
379.71	0.150
379.93	0.132
380.15	0.128
380.36	0.134
380.58	0.164
380.80	0.165
381.01	0.184
381.23	0.178
381.44	0.190
381.66	0.161
381.88	0.136
382.09	0.136
382.31	0.122
382.53	0.125
382.74	0.158
382.96	0.123
383.17	0.112
383.39	0.100
383.61	0.098
383.82	0.101
384.04	0.127
384.25	0.148
384.47	0.158
384.69	0.171
384.90	0.156
385.12	0.149
385.33	0.176
385.55	0.198
385.77	0.164
385.98	0.169
386.20	0.162
386.41	0.150
386.63	0.157
386.85	0.139
387.06	0.153
387.28	0.165
387.49	0.166
387.71	0.157
387.93	0.165
388.14	0.199
388.36	0.209
388.57	0.219
388.79	0.221
389.01	0.217
389.22	0.213
389.44	0.215
389.65	0.218
389.87	0.244
390.08	0.260
390.30	0.257
390.52	0.255
390.73	0.263
390.95	0.263
391.16	0.272
391.38	0.268
391.59	0.284
391.81	0.283
392.03	0.302
392.24	0.283
392.46	0.255
392.67	0.247
392.89	0.224
393.10	0.212
393.32	0.237
393.53	0.232
393.75	0.230
393.97	0.238
394.18	0.243
394.40	0.235
394.61	0.231
394.83	0.269
395.04	0.299
395.26	0.314
395.47	0.321
395.69	0.294
395.91	0.292
396.12	0.307
396.34	0.322
396.55	0.326
396.77	0.336
396.98	0.315
397.20	0.298
397.41	0.283
397.63	0.292
397.84	0.297
398.06	0.291
398.27	0.306
398.49	0.312
398.71	0.293
398.92	0.299
399.14	0.296
399.35	0.308
399.57	0.297
399.78	0.311
400.00	0.301
400.21	0.304
400.43	0.319
400.64	0.310
400.86	0.309
401.07	0.301
401.29	0.295
401.50	0.279
401.72	0.284
401.93	0.306
402.15	0.304
402.36	0.320
402.58	0.311
402.79	0.324
403.01	0.351
403.22	0.347
403.44	0.374
403.65	0.374
403.87	0.386
404.08	0.374
404.30	0.353
404.51	0.350
404.73	0.346
404.94	0.368
405.16	0.360
405.37	0.328
405.59	0.318
405.80	0.307
406.02	0.297
406.23	0.295
406.45	0.308
406.66	0.298
406.88	0.285
407.09	0.285
407.31	0.278
407.52	0.273
407.74	0.288
407.95	0.319
408.17	0.317
408.38	0.344
408.60	0.351
408.81	0.347
409.03	0.358
409.24	0.378
409.45	0.392
409.67	0.381
409.88	0.394
410.10	0.384
410.31	0.379
410.53	0.384
410.74	0.391
410.96	0.396
411.17	0.404
411.39	0.406
411.60	0.409
411.82	0.408
412.03	0.431
412.24	0.426
412.46	0.430
412.67	0.425
412.89	0.434
413.10	0.423
413.32	0.417
413.53	0.411
413.75	0.410
413.96	0.398
414.17	0.391
414.39	0.383
414.60	0.388
414.82	0.401
415.03	0.396
415.25	0.383
415.46	0.375
415.68	0.385
415.89	0.398
416.10	0.413
416.32	0.416
416.53	0.413
416.75	0.401
416.96	0.391
417.18	0.389
417.39	0.395
417.60	0.400
417.82	0.409
418.03	0.399
418.25	0.394
418.46	0.369
418.67	0.376
418.89	0.374
419.10	0.385
419.32	0.387
419.53	0.385
419.75	0.379
419.96	0.374
420.17	0.364
420.39	0.362
420.60	0.372
420.82	0.392
421.03	0.393
421.24	0.398
421.46	0.384
421.67	0.387
421.89	0.387
422.10	0.389
422.31	0.398
422.53	0.396
422.74	0.405
422.96	0.396
423.17	0.383
423.38	0.385
423.60	0.385
423.81	0.395
424.03	0.399
424.24	0.396
424.45	0.399
424.67	0.403
424.88	0.409
425.09	0.404
425.31	0.413
425.52	0.419
425.74	0.408
425.95	0.418
426.16	0.419
426.38	0.416
426.59	0.422
426.80	0.427
427.02	0.418
427.23	0.420
427.45	0.432
427.66	0.424
427.87	0.420
428.09	0.429
428.30	0.423
428.51	0.422
428.73	0.417
428.94	0.418
429.15	0.402
429.37	0.405
429.58	0.407
429.79	0.401
430.01	0.405
430.22	0.413
430.44	0.409
430.65	0.402
430.86	0.399
431.08	0.403
431.29	0.403
431.50	0.408
431.72	0.408
431.93	0.407
432.14	0.410
432.36	0.406
432.57	0.401
432.78	0.408
433.00	0.413
433.21	0.415
433.42	0.416
433.64	0.412
433.85	0.420
434.06	0.423
434.28	0.421
434.49	0.418
434.70	0.414
434.92	0.414
435.13	0.412
435.34	0.414
435.56	0.415
435.77	0.411
435.98	0.409
436.20	0.402
436.41	0.397
436.62	0.397
436.83	0.394
437.05	0.398
437.26	0.402
437.47	0.398
437.69	0.393
437.90	0.394
438.11	0.395
438.33	0.392
438.54	0.397
438.75	0.398
438.97	0.394
439.18	0.397
439.39	0.397
439.60	0.394
439.82	0.397
440.03	0.400
440.24	0.398
440.46	0.398
440.67	0.402
440.88	0.398
441.10	0.400
441.31	0.403
441.52	0.402
441.73	0.397
441.95	0.398
442.16	0.393
442.37	0.391
442.58	0.395
442.80	0.394
443.01	0.393
443.22	0.394
443.44	0.391
443.65	0.392
443.86	0.396
444.07	0.400
444.29	0.396
444.50	0.393
444.71	0.389
444.92	0.385
445.14	0.393
445.35	0.391
445.56	0.391
445.78	0.392
445.99	0.392
446.20	0.386
446.41	0.386
446.63	0.385
446.84	0.384
447.05	0.387
447.26	0.389
447.48	0.381
447.69	0.385
447.90	0.384
448.11	0.387
448.33	0.385
448.54	0.386
448.75	0.384
448.96	0.387
449.18	0.391
449.39	0.392
449.60	0.387
449.81	0.384
450.03	0.375
450.24	0.374
450.45	0.371
450.66	0.370
450.87	0.368
451.09	0.369
451.30	0.368
451.51	0.369
451.72	0.369
451.94	0.375
452.15	0.378
452.36	0.383
452.57	0.384
452.78	0.383
453.00	0.381
453.21	0.383
453.42	0.382
453.63	0.381
453.85	0.380
454.06	0.383
454.27	0.382
454.48	0.385
454.69	0.387
454.91	0.387
455.12	0.383
455.33	0.382
455.54	0.382
455.75	0.381
455.97	0.378
456.18	0.376
456.39	0.369
456.60	0.363
456.81	0.360
457.03	0.357
457.24	0.354
457.45	0.354
457.66	0.357
457.87	0.354
458.09	0.351
458.30	0.352
458.51	0.349
458.72	0.350
458.93	0.350
459.15	0.349
459.36	0.349
459.57	0.350
459.78	0.350
459.99	0.351
460.20	0.351
460.42	0.352
460.63	0.353
460.84	0.354
461.05	0.354
461.26	0.352
461.47	0.352
461.69	0.352
461.90	0.353
462.11	0.354
462.32	0.352
462.53	0.351
462.74	0.348
462.96	0.346
463.17	0.347
463.38	0.347
463.59	0.347
463.80	0.349
464.01	0.348
464.23	0.345
464.44	0.345
464.65	0.345
464.86	0.347
465.07	0.350
465.28	0.352
465.49	0.353
465.71	0.353
465.92	0.353
466.13	0.347
466.34	0.349
466.55	0.348
466.76	0.347
466.97	0.345
467.19	0.344
467.40	0.343
467.61	0.341
467.82	0.339
468.03	0.336
468.24	0.337
468.45	0.337
468.66	0.335
468.88	0.336
469.09	0.336
469.30	0.333
469.51	0.335
469.72	0.332
469.93	0.334
470.14	0.331
470.35	0.332
470.57	0.332
470.78	0.333
470.99	0.332
471.20	0.330
471.41	0.329
471.62	0.330
471.83	0.326
472.04	0.327
472.25	0.324
472.47	0.325
472.68	0.326
472.89	0.325
473.10	0.325
473.31	0.325
473.52	0.326
473.73	0.326
473.94	0.327
474.15	0.327
474.36	0.327
474.57	0.327
474.79	0.327
475.00	0.326
475.21	0.325
475.42	0.325
475.63	0.324
475.84	0.323
476.05	0.322
476.26	0.320
476.47	0.320
476.68	0.320
476.89	0.319
477.10	0.320
477.32	0.317
477.53	0.316
477.74	0.314
477.95	0.315
478.16	0.315
478.37	0.316
478.58	0.317
478.79	0.317
479.00	0.315
479.21	0.314
479.42	0.314
479.63	0.314
479.84	0.316
480.05	0.315
480.26	0.315
480.47	0.315
480.69	0.314
480.90	0.313
481.11	0.314
481.32	0.315
481.53	0.316
481.74	0.315
481.95	0.315
482.16	0.315
482.37	0.315
482.58	0.314
482.79	0.313
483.00	0.313
483.21	0.312
483.42	0.309
483.63	0.310
483.84	0.309
484.05	0.309
484.26	0.308
484.47	0.308
484.68	0.308
484.89	0.307
485.10	0.307
485.31	0.307
485.52	0.309
485.73	0.308
485.94	0.307
486.15	0.308
486.37	0.306
486.58	0.307
486.79	0.307
487.00	0.307
487.21	0.308
487.42	0.307
487.63	0.306
487.84	0.306
488.05	0.306
488.26	0.306
488.47	0.305
488.68	0.305
488.89	0.304
489.10	0.303
489.31	0.302
489.52	0.301
489.73	0.301
489.94	0.301
490.15	0.300
490.36	0.300
490.57	0.300
490.78	0.300
490.99	0.299
491.20	0.299
491.41	0.300
491.62	0.299
491.83	0.300
492.04	0.299
492.25	0.299
492.45	0.299
492.66	0.298
492.87	0.297
493.08	0.297
493.29	0.297
493.50	0.298
493.71	0.297
493.92	0.296
494.13	0.296
494.34	0.297
494.55	0.297
494.76	0.296
494.97	0.296
495.18	0.297
495.39	0.297
495.60	0.296
495.81	0.295
496.02	0.295
496.23	0.296
496.44	0.295
496.65	0.294
496.86	0.294
497.07	0.294
497.28	0.294
497.49	0.292
497.70	0.292
497.91	0.290
498.12	0.291
498.32	0.290
498.53	0.290
498.74	0.290
498.95	0.288
499.16	0.288
499.37	0.288
499.58	0.288
499.79	0.289
500.00	0.289
500.21	0.290
500.42	0.290
500.63	0.290
500.84	0.289
501.05	0.289
501.26	0.289
501.46	0.288
501.67	0.288
501.88	0.286
502.09	0.286
502.30	0.286
502.51	0.285
502.72	0.284
502.93	0.283
503.14	0.283
503.35	0.282
503.56	0.283
503.77	0.283
503.97	0.282
504.18	0.282
504.39	0.282
504.60	0.282
504.81	0.282
505.02	0.282
505.23	0.282
505.44	0.281
505.65	0.282
505.86	0.281
506.07	0.280
506.27	0.279
506.48	0.279
506.69	0.279
506.90	0.278
507.11	0.277
507.32	0.276
507.53	0.276
507.74	0.276
507.95	0.274
508.15	0.274
508.36	0.274
508.57	0.275
508.78	0.274
508.99	0.274
509.20	0.273
509.41	0.273
509.62	0.271
509.82	0.271
510.03	0.271
510.24	0.271
510.45	0.271
510.66	0.270
510.87	0.270
511.08	0.270
511.29	0.270
511.49	0.269
511.70	0.269
511.91	0.268
512.12	0.268
512.33	0.268
512.54	0.267
512.75	0.267
512.95	0.266
513.16	0.265
513.37	0.265
513.58	0.265
513.79	0.265
514.00	0.264
514.20	0.264
514.41	0.264
514.62	0.263
514.83	0.262
515.04	0.262
515.25	0.262
515.46	0.261
515.66	0.260
515.87	0.260
516.08	0.259
516.29	0.260
516.50	0.259
516.71	0.258
516.91	0.258
517.12	0.258
517.33	0.258
517.54	0.257
517.75	0.257
517.95	0.256
518.16	0.256
518.37	0.255
518.58	0.254
518.79	0.254
519.00	0.253
519.20	0.253
519.41	0.251
519.62	0.251
519.83	0.250
520.04	0.250
520.24	0.249
520.45	0.248
520.66	0.247
520.87	0.247
521.08	0.246
521.28	0.245
521.49	0.245
521.70	0.245
521.91	0.245
522.12	0.244
522.32	0.244
522.53	0.244
522.74	0.243
522.95	0.242
523.16	0.242
523.36	0.241
523.57	0.241
523.78	0.239
523.99	0.238
524.20	0.237
524.40	0.237
524.61	0.236
524.82	0.236
525.03	0.235
525.23	0.234
525.44	0.233
525.65	0.233
525.86	0.232
526.06	0.232
526.27	0.231
526.48	0.230
526.69	0.230
526.90	0.229
527.10	0.228
527.31	0.228
527.52	0.227
527.73	0.227
527.93	0.227
528.14	0.226
528.35	0.225
528.56	0.225
528.76	0.224
528.97	0.223
529.18	0.223
529.39	0.222
529.59	0.222
529.80	0.221
530.01	0.220
530.22	0.218
530.42	0.218
530.63	0.217
530.84	0.216
531.05	0.215
531.25	0.215
531.46	0.214
531.67	0.214
531.88	0.212
532.08	0.212
532.29	0.211
532.50	0.210
532.70	0.210
532.91	0.209
533.12	0.208
533.33	0.207
533.53	0.206
533.74	0.205
533.95	0.204
534.15	0.203
534.36	0.202
534.57	0.202
534.78	0.201
534.98	0.200
535.19	0.199
535.40	0.198
535.60	0.197
535.81	0.196
536.02	0.195
536.23	0.194
536.43	0.194
536.64	0.192
536.85	0.191
537.05	0.190
537.26	0.189
537.47	0.188
537.67	0.187
537.88	0.185
538.09	0.185
538.30	0.184
538.50	0.184
538.71	0.182
538.92	0.181
539.12	0.180
539.33	0.179
539.54	0.179
539.74	0.178
539.95	0.177
540.16	0.176
540.36	0.175
540.57	0.173
540.78	0.172
540.98	0.171
541.19	0.170
541.40	0.169
541.60	0.168
541.81	0.167
542.02	0.165
542.22	0.165
542.43	0.164
542.64	0.163
542.84	0.162
543.05	0.160
543.26	0.159
543.46	0.158
543.67	0.157
543.88	0.156
544.08	0.155
544.29	0.154
544.50	0.152
544.70	0.151
544.91	0.151
545.12	0.150
545.32	0.149
545.53	0.148
545.74	0.147
545.94	0.145
546.15	0.144
546.35	0.143
546.56	0.143
546.77	0.141
546.97	0.139
547.18	0.138
547.39	0.137
547.59	0.136
547.80	0.135
548.01	0.134
548.21	0.133
548.42	0.133
548.62	0.132
548.83	0.130
549.04	0.130
549.24	0.129
549.45	0.128
549.65	0.127
549.86	0.126
550.07	0.125
550.27	0.124
550.48	0.123
550.69	0.122
550.89	0.121
551.10	0.120
551.30	0.119
551.51	0.118
551.72	0.117
551.92	0.116
552.13	0.115
552.33	0.114
552.54	0.112
552.75	0.111
552.95	0.109
553.16	0.108
553.36	0.107
553.57	0.106
553.78	0.105
553.98	0.104
554.19	0.103
554.39	0.101
554.60	0.100
554.80	0.100
555.01	0.099
555.22	0.098
555.42	0.097
555.63	0.096
555.83	0.095
556.04	0.094
556.25	0.093
556.45	0.092
556.66	0.091
556.86	0.091
557.07	0.090
557.27	0.088
557.48	0.088
557.68	0.086
557.89	0.085
558.10	0.084
558.30	0.084
558.51	0.083
558.71	0.081
558.92	0.081
559.12	0.079
559.33	0.078
559.54	0.077
559.74	0.076
559.95	0.076
560.15	0.075
560.36	0.074
560.56	0.074
560.77	0.073
560.97	0.072
561.18	0.071
561.38	0.070
561.59	0.070
561.79	0.069
562.00	0.068
562.21	0.068
562.41	0.067
562.62	0.066
562.82	0.065
563.03	0.064
563.23	0.063
563.44	0.063
563.64	0.062
563.85	0.060
564.05	0.060
564.26	0.060
564.46	0.059
564.67	0.058
564.87	0.058
565.08	0.057
565.28	0.057
565.49	0.056
565.69	0.056
565.90	0.055
566.10	0.054
566.31	0.054
566.51	0.053
566.72	0.053
566.92	0.052
567.13	0.051
567.33	0.050
567.54	0.049
567.74	0.049
567.95	0.049
568.15	0.049
568.36	0.048
568.56	0.047
568.77	0.047
568.97	0.046
569.18	0.046
569.38	0.046
569.59	0.045
569.79	0.045
570.00	0.044
570.20	0.043
570.41	0.042
570.61	0.042
570.82	0.042
571.02	0.041
571.23	0.040
571.43	0.040
571.64	0.039
571.84	0.039
572.05	0.039
572.25	0.039
572.45	0.039
572.66	0.039
572.86	0.038
573.07	0.037
573.27	0.037
573.48	0.037
573.68	0.037
573.89	0.037
574.09	0.036
574.30	0.036
574.50	0.035
574.70	0.034
574.91	0.034
575.11	0.034
575.32	0.034
575.52	0.033
575.73	0.033
575.93	0.033
576.14	0.032
576.34	0.032
576.54	0.031
576.75	0.031
576.95	0.031
577.16	0.031
577.36	0.031
577.57	0.030
577.77	0.030
577.97	0.029
578.18	0.029
578.38	0.029
578.59	0.029
578.79	0.028
579.00	0.028
579.20	0.028
579.40	0.027
579.61	0.027
579.81	0.027
580.02	0.027
580.22	0.027
580.42	0.027
580.63	0.027
580.83	0.027
581.04	0.027
581.24	0.027
581.45	0.027
581.65	0.026
581.85	0.026
582.06	0.026
582.26	0.025
582.47	0.025
582.67	0.025
582.87	0.025
583.08	0.024
583.28	0.024
583.48	0.024
583.69	0.024
583.89	0.024
584.10	0.024
584.30	0.024
584.50	0.024
584.71	0.024
584.91	0.023
585.12	0.024
585.32	0.024
585.52	0.023
585.73	0.023
585.93	0.023
586.13	0.023
586.34	0.022
586.54	0.022
586.75	0.022
586.95	0.023
587.15	0.022
587.36	0.022
587.56	0.022
587.76	0.022
587.97	0.022
588.17	0.022
588.37	0.022
588.58	0.022
588.78	0.023
588.98	0.023
589.19	0.023
589.39	0.023
589.60	0.023
589.80	0.023
590.00	0.023
590.21	0.022
590.41	0.022
590.61	0.021
590.82	0.021
591.02	0.021
591.22	0.021
591.43	0.021
591.63	0.020
591.83	0.021
592.04	0.021
592.24	0.020
592.44	0.020
592.65	0.020
592.85	0.021
593.05	0.021
593.26	0.021
593.46	0.021
593.66	0.020
593.86	0.020
594.07	0.019
594.27	0.020
594.47	0.020
594.68	0.020
594.88	0.020
595.08	0.019
595.29	0.019
595.49	0.019
595.69	0.019
595.90	0.019
596.10	0.020
596.30	0.020
596.50	0.019
596.71	0.019
596.91	0.020
597.11	0.020
597.32	0.020
597.52	0.020
597.72	0.020
597.93	0.020
598.13	0.020
598.33	0.020
598.53	0.020
598.74	0.019
598.94	0.019
599.14	0.019
599.35	0.019
599.55	0.020
599.75	0.020
599.95	0.019
600.16	0.019
600.36	0.018
600.56	0.018
600.76	0.019
600.97	0.019
601.17	0.019
601.37	0.019
601.58	0.019
601.78	0.018
601.98	0.018
602.18	0.018
602.39	0.019
602.59	0.019
602.79	0.019
602.99	0.019
603.20	0.019
603.40	0.019
603.60	0.019
603.80	0.019
604.01	0.019
604.21	0.019
604.41	0.019
604.61	0.019
604.82	0.019
605.02	0.018
605.22	0.018
605.42	0.018
605.62	0.019
605.83	0.018
606.03	0.018
606.23	0.019
606.43	0.018
606.64	0.018
606.84	0.019
607.04	0.018
607.24	0.019
607.45	0.019
607.65	0.019
607.85	0.018
608.05	0.019
608.25	0.019
608.46	0.018
608.66	0.019
608.86	0.018
609.06	0.018
609.26	0.018
609.47	0.018
609.67	0.019
609.87	0.019
610.07	0.019
610.28	0.019
610.48	0.019
610.68	0.019
610.88	0.019
611.08	0.018
611.29	0.019
611.49	0.019
611.69	0.018
611.89	0.018
612.09	0.018
612.29	0.018
612.50	0.018
612.70	0.018
612.90	0.018
613.10	0.018
613.30	0.018
613.51	0.018
613.71	0.018
613.91	0.019
614.11	0.019
614.31	0.019
614.51	0.019
614.72	0.019
614.92	0.019
615.12	0.019
615.32	0.019
615.52	0.019
615.72	0.019
615.93	0.019
616.13	0.018
616.33	0.018
616.53	0.019
616.73	0.019
616.93	0.018
617.14	0.018
617.34	0.018
617.54	0.018
617.74	0.018
617.94	0.018
618.14	0.018
618.34	0.018
618.55	0.018
618.75	0.018
618.95	0.018
619.15	0.018
619.35	0.018
619.55	0.018
619.75	0.018
619.96	0.018
620.16	0.018
620.36	0.018
620.56	0.017
620.76	0.018
620.96	0.018
621.16	0.018
621.36	0.018
621.57	0.018
621.77	0.019
621.97	0.018
622.17	0.018
622.37	0.018
622.57	0.019
622.77	0.019
622.97	0.019
623.18	0.019
623.38	0.018
623.58	0.018
623.78	0.018
623.98	0.018
624.18	0.018
624.38	0.018
624.58	0.018
624.78	0.018
624.98	0.018
625.19	0.017
625.39	0.017
625.59	0.018
625.79	0.018
625.99	0.018
626.19	0.018
626.39	0.018
626.59	0.019
626.79	0.019
626.99	0.018
627.19	0.019
627.40	0.019
627.60	0.019
627.80	0.019
628.00	0.019
628.20	0.019
628.40	0.019
628.60	0.018
628.80	0.018
629.00	0.018
629.20	0.018
629.40	0.018
629.60	0.018
629.80	0.018
630.00	0.018
630.20	0.018
630.41	0.018
630.61	0.018
630.81	0.018
631.01	0.018
631.21	0.018
631.41	0.018
631.61	0.018
631.81	0.018
632.01	0.017
632.21	0.018
632.41	0.018
632.61	0.018
632.81	0.018
633.01	0.018
633.21	0.018
633.41	0.018
633.61	0.018
633.81	0.018
634.01	0.018
634.21	0.018
634.41	0.017
634.61	0.018
634.81	0.017
635.01	0.017
635.22	0.017
635.42	0.017
635.62	0.017
635.82	0.017
636.02	0.018
636.22	0.017
636.42	0.018
636.62	0.018
636.82	0.017
637.02	0.018
637.22	0.018
637.42	0.018
637.62	0.018
637.82	0.018
638.02	0.018
638.22	0.018
638.42	0.018
638.62	0.018
638.82	0.018
639.02	0.018
639.22	0.018
639.42	0.018
639.62	0.018
639.82	0.018
640.02	0.018
640.22	0.018
640.42	0.018
640.62	0.018
640.82	0.018
641.02	0.018
641.22	0.018
641.42	0.018
641.61	0.018
641.81	0.018
642.01	0.018
642.21	0.018
642.41	0.018
642.61	0.019
642.81	0.019
643.01	0.018
643.21	0.018
643.41	0.018
643.61	0.018
643.81	0.018
644.01	0.018
644.21	0.018
644.41	0.018
644.61	0.017
644.81	0.017
645.01	0.017
645.21	0.018
645.41	0.017
645.61	0.017
645.81	0.017
646.01	0.017
646.21	0.018
646.40	0.018
646.60	0.018
646.80	0.018
647.00	0.018
647.20	0.018
647.40	0.018
647.60	0.018
647.80	0.018
648.00	0.018
648.20	0.017
648.40	0.017
648.60	0.017
648.80	0.017
649.00	0.017
649.20	0.017
649.39	0.017
649.59	0.018
649.79	0.018
649.99	0.018
650.19	0.018
650.39	0.018
650.59	0.018
650.79	0.018
650.99	0.018
651.19	0.018
651.39	0.018
651.58	0.018
651.78	0.018
651.98	0.018
652.18	0.018
652.38	0.018
652.58	0.018
652.78	0.018
652.98	0.018
653.18	0.018
653.38	0.018
653.57	0.018
653.77	0.018
653.97	0.018
654.17	0.018
654.37	0.018
654.57	0.018
654.77	0.018
654.97	0.018
655.16	0.017
655.36	0.017
655.56	0.018
655.76	0.017
655.96	0.017
656.16	0.017
656.36	0.017
656.56	0.017
656.75	0.017
656.95	0.017
657.15	0.017
657.35	0.017
657.55	0.017
657.75	0.017
657.95	0.017
658.14	0.017
658.34	0.017
658.54	0.017
658.74	0.017
658.94	0.017
659.14	0.017
659.34	0.017
659.53	0.017
659.73	0.017
659.93	0.017
660.13	0.017
660.33	0.016
660.53	0.017
660.72	0.016
660.92	0.016
661.12	0.017
661.32	0.017
661.52	0.017
661.72	0.017
661.91	0.017
662.11	0.017
662.31	0.017
662.51	0.016
662.71	0.016
662.90	0.017
663.10	0.017
663.30	0.016
663.50	0.016
663.70	0.016
663.90	0.016
664.09	0.016
664.29	0.016
664.49	0.016
664.69	0.017
664.89	0.017
665.08	0.017
665.28	0.017
665.48	0.017
665.68	0.017
665.88	0.017
666.07	0.017
666.27	0.017
666.47	0.017
666.67	0.017
666.87	0.017
667.06	0.017
667.26	0.017
667.46	0.017
667.66	0.016
667.85	0.017
668.05	0.017
668.25	0.017
668.45	0.017
668.65	0.017
668.84	0.017
669.04	0.017
669.24	0.017
669.44	0.017
669.63	0.017
669.83	0.017
670.03	0.017
670.23	0.016
670.42	0.016
670.62	0.016
670.82	0.016
671.02	0.016
671.22	0.016
671.41	0.016
671.61	0.016
671.81	0.016
672.01	0.017
672.20	0.017
672.40	0.017
672.60	0.017
672.80	0.017
672.99	0.017
673.19	0.017
673.39	0.017
673.58	0.017
673.78	0.017
673.98	0.017
674.18	0.017
674.37	0.017
674.57	0.017
674.77	0.017
674.97	0.017
675.16	0.016
675.36	0.016
675.56	0.016
675.75	0.016
675.95	0.016
676.15	0.016
676.35	0.016
676.54	0.016
676.74	0.016
676.94	0.016
677.13	0.016
677.33	0.017
677.53	0.017
677.73	0.017
677.92	0.017
678.12	0.017
678.32	0.017
678.51	0.017
678.71	0.016
678.91	0.017
679.11	0.017
679.30	0.017
679.50	0.017
679.70	0.017
679.89	0.017
680.09	0.017
680.29	0.017
680.48	0.017
680.68	0.017
680.88	0.017
681.07	0.017
681.27	0.017
681.47	0.017
681.66	0.017
681.86	0.017
682.06	0.017
682.25	0.017
682.45	0.017
682.65	0.016
682.84	0.016
683.04	0.016
683.24	0.016
683.43	0.016
683.63	0.016
683.83	0.016
684.02	0.016
684.22	0.016
684.42	0.016
684.61	0.017
684.81	0.017
685.01	0.017
685.20	0.017
685.40	0.016
685.60	0.016
685.79	0.017
685.99	0.017
686.19	0.017
686.38	0.017
686.58	0.017
686.77	0.016
686.97	0.016
687.17	0.016
687.36	0.016
687.56	0.016
687.76	0.016
687.95	0.016
688.15	0.016
688.34	0.016
688.54	0.016
688.74	0.016
688.93	0.016
689.13	0.016
689.33	0.016
689.52	0.016
689.72	0.016
689.91	0.016
690.11	0.016
690.31	0.016
690.50	0.016
690.70	0.016
690.89	0.016
691.09	0.016
691.29	0.016
691.48	0.016
691.68	0.016
691.87	0.016
692.07	0.016
692.27	0.016
692.46	0.016
692.66	0.016
692.85	0.016
693.05	0.016
693.25	0.016
693.44	0.016
693.64	0.016
693.83	0.016
694.03	0.016
694.22	0.016
694.42	0.016
694.62	0.016
694.81	0.016
695.01	0.016
695.20	0.016
695.40	0.016
695.59	0.016
695.79	0.016
695.99	0.016
696.18	0.016
696.38	0.016
696.57	0.016
696.77	0.016
696.96	0.016
697.16	0.017
697.36	0.017
697.55	0.017
697.75	0.017
697.94	0.017
698.14	0.017
698.33	0.017
698.53	0.017
698.72	0.017
698.92	0.017
699.11	0.017
699.31	0.016
699.51	0.016
699.70	0.016
699.90	0.016
700.09	0.016
700.29	0.016
700.48	0.016
700.68	0.016
700.87	0.016
701.07	0.016
701.26	0.016
701.46	0.016
701.65	0.016
701.85	0.016
702.04	0.016
702.24	0.016
702.43	0.016
702.63	0.016
702.82	0.016
703.02	0.016
703.21	0.016
703.41	0.016
703.60	0.016
703.80	0.016
703.99	0.016
704.19	0.016
704.38	0.016
704.58	0.016
704.77	0.016
704.97	0.016
705.16	0.016
705.36	0.016
705.55	0.016
705.75	0.016
705.94	0.016
706.14	0.015
706.33	0.015
706.53	0.015
706.72	0.015
706.92	0.015
707.11	0.016
707.31	0.015
707.50	0.015
707.70	0.016
707.89	0.016
708.09	0.016
708.28	0.016
708.48	0.016
708.67	0.016
708.86	0.016
709.06	0.016
709.25	0.015
709.45	0.016
709.64	0.015
709.84	0.015
710.03	0.015
710.23	0.015
710.42	0.015
710.62	0.016
710.81	0.016
711.00	0.016
711.20	0.016
711.39	0.016
711.59	0.016
711.78	0.016
711.98	0.016
712.17	0.016
712.37	0.016
712.56	0.016
712.75	0.015
712.95	0.015
713.14	0.015
713.34	0.015
713.53	0.015
713.73	0.015
713.92	0.015
714.11	0.014
714.31	0.014
714.50	0.014
714.70	0.014
714.89	0.014
715.08	0.014
715.28	0.015
715.47	0.015
715.67	0.015
715.86	0.015
716.06	0.015
716.25	0.015
716.44	0.014
716.64	0.014
716.83	0.014
717.03	0.014
717.22	0.014
717.41	0.013
717.61	0.013
717.80	0.013
717.99	0.013
718.19	0.013
718.38	0.013
718.58	0.013
718.77	0.013
718.96	0.013
719.16	0.013
719.35	0.013
719.55	0.013
719.74	0.013
719.93	0.013
720.13	0.013
720.32	0.013
720.51	0.013
720.71	0.014
720.90	0.014
721.10	0.013
721.29	0.013
721.48	0.013
721.68	0.013
721.87	0.013
722.06	0.012
722.26	0.012
722.45	0.012
722.64	0.012
722.84	0.011
723.03	0.011
723.22	0.012
723.42	0.011
723.61	0.011
723.80	0.011
724.00	0.011
724.19	0.011
724.38	0.011
724.58	0.012
724.77	0.012
724.96	0.012
725.16	0.012
725.35	0.012
725.54	0.012
725.74	0.011
725.93	0.011
726.12	0.011
726.32	0.011
726.51	0.011
726.70	0.011
726.90	0.011
727.09	0.011
727.28	0.010
727.48	0.010
727.67	0.010
727.86	0.010
728.06	0.010
728.25	0.010
728.44	0.010
728.64	0.010
728.83	0.010
729.02	0.010
729.21	0.010
729.41	0.010
729.60	0.010
729.79	0.010
729.99	0.010
730.18	0.009
730.37	0.009
730.56	0.009
730.76	0.009
730.95	0.009
731.14	0.009
731.34	0.009
731.53	0.009
731.72	0.009
731.91	0.009
732.11	0.009
732.30	0.009
732.49	0.009
732.69	0.009
732.88	0.009
733.07	0.009
733.26	0.010
733.46	0.009
733.65	0.009
733.84	0.009
734.03	0.009
734.23	0.009
734.42	0.008
734.61	0.008
734.80	0.008
735.00	0.008
735.19	0.008
735.38	0.008
735.57	0.008
735.77	0.008
735.96	0.008
736.15	0.008
736.34	0.008
736.54	0.008
736.73	0.008
736.92	0.008
737.11	0.008
737.31	0.008
737.50	0.008
737.69	0.008
737.88	0.008
738.07	0.008
738.27	0.008
738.46	0.008
738.65	0.008
738.84	0.008
739.04	0.008
739.23	0.008
739.42	0.008
739.61	0.008
739.80	0.007
740.00	0.007
740.19	0.007
740.38	0.007
740.57	0.007
740.76	0.007
740.96	0.007
741.15	0.007
741.34	0.007
741.53	0.008
741.72	0.008
741.92	0.008
742.11	0.008
742.30	0.008
742.49	0.008
742.68	0.008
742.88	0.008
743.07	0.008
743.26	0.008
743.45	0.008
743.64	0.008
743.84	0.008
744.03	0.008
744.22	0.008
744.41	0.008
744.60	0.009
744.79	0.009
744.99	0.009
745.18	0.009
745.37	0.009
745.56	0.008
745.75	0.008
745.94	0.008
746.14	0.008
746.33	0.008
746.52	0.008
746.71	0.008
746.90	0.008
747.09	0.008
747.28	0.008
747.48	0.008
747.67	0.008
747.86	0.008
748.05	0.008
748.24	0.008
748.43	0.008
748.62	0.009
748.82	0.009
749.01	0.009
749.20	0.009
749.39	0.009
749.58	0.009
749.77	0.009
749.96	0.009
750.16	0.009
750.35	0.010
750.54	0.009
750.73	0.009
750.92	0.010
751.11	0.009
751.30	0.010
751.49	0.010
751.68	0.010
751.88	0.010
752.07	0.010
752.26	0.010
752.45	0.009
752.64	0.009
752.83	0.009
753.02	0.009
753.21	0.009
753.40	0.009
753.60	0.009
753.79	0.009
753.98	0.009
754.17	0.010
754.36	0.009
754.55	0.010
754.74	0.010
754.93	0.010
755.12	0.010
755.31	0.010
755.50	0.010
755.70	0.010
755.89	0.010
756.08	0.010
756.27	0.011
756.46	0.011
756.65	0.011
756.84	0.011
757.03	0.012
757.22	0.011
757.41	0.012
757.60	0.012
757.79	0.012
757.98	0.012
758.17	0.011
758.36	0.011
758.56	0.011
758.75	0.011
758.94	0.011
759.13	0.011
759.32	0.011
759.51	0.011
759.70	0.011
759.89	0.011
760.08	0.010
760.27	0.011
760.46	0.011
760.65	0.011
760.84	0.011
761.03	0.011
761.22	0.011
761.41	0.011
761.60	0.011
761.79	0.012
761.98	0.012
762.17	0.012
762.36	0.012
762.55	0.012
762.74	0.012
762.93	0.012
763.12	0.012
763.31	0.012
763.50	0.012
763.69	0.012
763.88	0.011
764.07	0.011
764.26	0.011
764.45	0.011
764.64	0.010
764.83	0.010
765.02	0.010
765.21	0.010
765.40	0.010
765.59	0.010
765.78	0.010
765.97	0.010
766.16	0.009
766.35	0.009
766.54	0.010
766.73	0.010
766.92	0.010
767.11	0.010
767.30	0.010
767.49	0.010
767.68	0.010
767.87	0.010
768.06	0.010
768.25	0.009
768.44	0.009
768.63	0.009
768.82	0.008
769.01	0.008
769.20	0.008
769.39	0.008
769.58	0.008
769.77	0.008
769.96	0.008
770.15	0.008
770.34	0.008
770.53	0.008
770.72	0.008
770.91	0.008
771.10	0.008
771.29	0.008
771.47	0.008
771.66	0.008
771.85	0.008
772.04	0.008
772.23	0.008
772.42	0.008
772.61	0.008
772.80	0.008
772.99	0.008
773.18	0.008
773.37	0.008
773.56	0.008
773.75	0.007
773.94	0.007
774.13	0.008
774.31	0.008
774.50	0.008
774.69	0.008
774.88	0.008
775.07	0.008
775.26	0.008
775.45	0.008
775.64	0.008
775.83	0.007
776.02	0.008
776.21	0.008
776.40	0.008
776.58	0.008
776.77	0.007
776.96	0.007
777.15	0.007
777.34	0.007
777.53	0.007
777.72	0.007
777.91	0.007
778.10	0.006
778.28	0.006
778.47	0.006
778.66	0.006
778.85	0.006
779.04	0.006
779.23	0.006
779.42	0.006
779.61	0.006
779.79	0.007
779.98	0.007
780.17	0.007
780.36	0.007
780.55	0.007
780.74	0.007
780.93	0.007
781.12	0.008
781.30	0.007
781.49	0.007
781.68	0.007
781.87	0.007
782.06	0.007
782.25	0.007
782.44	0.007
782.62	0.007
782.81	0.008
783.00	0.008
783.19	0.007
783.38	0.007
783.57	0.007
783.75	0.007
783.94	0.007
784.13	0.007
784.32	0.007
784.51	0.007
784.70	0.007
784.88	0.007
785.07	0.007
785.26	0.007
785.45	0.007
785.64	0.007
785.83	0.007
786.01	0.007
786.20	0.007
786.39	0.007
786.58	0.007
786.77	0.007
786.95	0.007
787.14	0.007
787.33	0.007
787.52	0.007
787.71	0.007
787.90	0.007
788.08	0.007
788.27	0.007
788.46	0.007
788.65	0.007
788.84	0.007
789.02	0.008
789.21	0.008
789.40	0.008
789.59	0.008
789.77	0.008
789.96	0.008
790.15	0.008
790.34	0.008
790.53	0.008
790.71	0.008
790.90	0.008
791.09	0.008
791.28	0.008
791.46	0.008
791.65	0.008
791.84	0.008
792.03	0.008
792.22	0.008
792.40	0.007
792.59	0.007
792.78	0.007
792.97	0.007
793.15	0.008
793.34	0.007
793.53	0.007
793.72	0.008
793.90	0.008
794.09	0.008
794.28	0.008
794.47	0.008
794.65	0.008
794.84	0.009
795.03	0.009
795.22	0.009
795.40	0.009
795.59	0.009
795.78	0.009
795.97	0.010
796.15	0.010
796.34	0.010
796.53	0.010
796.71	0.010
796.90	0.010
797.09	0.010
797.28	0.010
797.46	0.010
797.65	0.010
797.84	0.010
798.02	0.010
798.21	0.010
798.40	0.010
798.59	0.010
798.77	0.010
798.96	0.009
799.15	0.010
799.33	0.010
799.52	0.010
799.71	0.010
799.90	0.010
800.08	0.010
800.27	0.010
800.46	0.010
800.64	0.010
800.83	0.010
801.02	0.010
801.20	0.010
801.39	0.010
801.58	0.010
801.76	0.010
801.95	0.010
802.14	0.010
802.32	0.010
802.51	0.010
802.70	0.010
802.88	0.010
803.07	0.009
803.26	0.009
803.44	0.009
803.63	0.009
803.82	0.009
804.00	0.009
804.19	0.009
804.38	0.009
804.56	0.009
804.75	0.009
804.94	0.009
805.12	0.010
805.31	0.010
805.50	0.010
805.68	0.010
805.87	0.010
806.06	0.010
806.24	0.010
806.43	0.010
806.62	0.010
806.80	0.010
806.99	0.010
807.17	0.010
807.36	0.010
807.55	0.010
807.73	0.010
807.92	0.010
808.11	0.010
808.29	0.010
808.48	0.010
808.66	0.010
808.85	0.010
809.04	0.010
809.22	0.010
809.41	0.011
809.59	0.010
809.78	0.010
809.97	0.011
810.15	0.010
810.34	0.010
810.53	0.010
810.71	0.010
810.90	0.010
811.08	0.010
811.27	0.010
811.45	0.010
811.64	0.010
811.83	0.010
812.01	0.010
812.20	0.010
812.38	0.010
812.57	0.010
812.76	0.010
812.94	0.010
813.13	0.009
813.31	0.009
813.50	0.009
813.68	0.009
813.87	0.009
814.06	0.009
814.24	0.009
814.43	0.009
814.61	0.009
814.80	0.010
814.98	0.010
815.17	0.010
815.36	0.010
815.54	0.010
815.73	0.010
815.91	0.010
816.10	0.010
816.28	0.010
816.47	0.010
816.65	0.010
816.84	0.010
817.03	0.010
817.21	0.009
817.40	0.009
817.58	0.009
817.77	0.009
817.95	0.009
818.14	0.009
818.32	0.009
818.51	0.008
818.69	0.008
818.88	0.008
819.06	0.008
819.25	0.009
819.43	0.009
819.62	0.009
819.80	0.009
819.99	0.009
820.18	0.009
820.36	0.009
820.55	0.009
820.73	0.010
820.92	0.009
821.10	0.009
821.29	0.009
821.47	0.009
821.66	0.009
821.84	0.009
822.03	0.009
822.21	0.009
822.40	0.009
822.58	0.009
822.77	0.009
822.95	0.009
823.14	0.009
823.32	0.009
823.50	0.009
823.69	0.009
823.87	0.009
824.06	0.009
824.24	0.008
824.43	0.008
824.61	0.009
824.80	0.009
824.98	0.009
825.17	0.009
825.35	0.009
825.54	0.009
825.72	0.009
825.91	0.009
826.09	0.009
826.28	0.009
826.46	0.008
826.64	0.008
826.83	0.008
827.01	0.008
827.20	0.007
827.38	0.008
827.57	0.007
827.75	0.007
827.94	0.007
828.12	0.007
828.31	0.007
828.49	0.007
828.67	0.006
828.86	0.007
829.04	0.006
829.23	0.006
829.41	0.006
829.60	0.006
829.78	0.006
829.96	0.006
830.15	0.006
830.33	0.006
830.52	0.006
830.70	0.006
830.88	0.006
831.07	0.006
831.25	0.006
831.44	0.005
831.62	0.005
831.81	0.005
831.99	0.005
832.17	0.005
832.36	0.004
832.54	0.005
832.73	0.004
832.91	0.004
833.09	0.004
833.28	0.004
833.46	0.004
833.65	0.004
833.83	0.004
834.01	0.004
834.20	0.004
834.38	0.004
834.56	0.005
834.75	0.005
834.93	0.005
835.12	0.004
835.30	0.004
835.48	0.004
835.67	0.004
835.85	0.004
836.03	0.004
836.22	0.004
836.40	0.004
836.59	0.003
836.77	0.003
836.95	0.003
837.14	0.003
837.32	0.003
837.50	0.004
837.69	0.004
837.87	0.004
838.05	0.004
838.24	0.004
838.42	0.004
838.60	0.004
838.79	0.004
838.97	0.004
839.15	0.004
839.34	0.004
839.52	0.003
839.70	0.003
839.89	0.003
840.07	0.004
840.25	0.003
840.44	0.003
840.62	0.003
840.80	0.003
840.99	0.003
841.17	0.003
841.35	0.003
841.54	0.003
841.72	0.003
841.90	0.003
842.09	0.003
842.27	0.003
842.45	0.003
842.64	0.003
842.82	0.003
843.00	0.003
843.19	0.003
843.37	0.003
843.55	0.003
843.73	0.003
843.92	0.003
844.10	0.002
844.28	0.002
844.47	0.002
844.65	0.002
844.83	0.002
845.01	0.002
845.20	0.002
845.38	0.002
845.56	0.002
845.75	0.002
845.93	0.002
846.11	0.002
846.29	0.002
846.48	0.002
846.66	0.002
846.84	0.002
847.02	0.002
847.21	0.002
847.39	0.002
847.57	0.002
847.76	0.003
847.94	0.003
848.12	0.003
848.30	0.002
848.49	0.002
848.67	0.002
848.85	0.002
849.03	0.002
849.22	0.002
849.40	0.002
849.58	0.003
849.76	0.002
849.95	0.002
850.13	0.002
850.31	0.002
850.49	0.002
850.67	0.003
850.86	0.003
851.04	0.003
851.22	0.002
851.40	0.002
851.59	0.002
851.77	0.002
851.95	0.002
852.13	0.002
852.31	0.002
852.50	0.002
852.68	0.002
852.86	0.001
853.04	0.001
853.23	0.002
853.41	0.001
853.59	0.001
853.77	0.001
853.95	0.001
854.14	0.001
854.32	0.001
854.50	0.001
854.68	0.001
854.86	0.001
855.04	0.001
855.23	0.002
855.41	0.002
855.59	0.002
855.77	0.002
855.95	0.001
856.14	0.002
856.32	0.001
856.50	0.001
856.68	0.001
856.86	0.001
857.04	0.001
857.23	0.001
857.41	0.001
857.59	0.001
857.77	0.001
857.95	0.001
858.13	0.001
858.32	0.001
858.50	0.001
858.68	0.001
858.86	0.001
859.04	0.001
859.22	0.001
859.41	0.000
859.59	-0.000
859.77	-0.000
859.95	-0.000
860.13	0.000
860.31	0.000
860.49	-0.000
860.68	-0.000
860.86	0.000
861.04	0.000
861.22	-0.000
861.40	0.000
861.58	0.001
861.76	0.001
861.94	0.000
862.13	0.001
862.31	0.001
862.49	0.001
862.67	0.001
862.85	0.001
863.03	0.001
863.21	0.001
863.39	0.001
863.57	0.001
863.76	0.000
863.94	0.000
864.12	0.000
864.30	0.000
864.48	-0.000
864.66	-0.000
864.84	-0.000
865.02	-0.000
865.20	-0.000
865.38	-0.000
865.57	0.000
865.75	0.000
865.93	0.001
866.11	0.000
866.29	0.000
866.47	0.001
866.65	0.001
866.83	0.001
867.01	0.001
867.19	0.001
867.37	0.001
867.55	0.001
867.73	0.001
867.92	0.001
868.10	0.001
868.28	0.002
868.46	0.002
868.64	0.002
868.82	0.002
869.00	0.002
869.18	0.002
869.36	0.002
869.54	0.003
869.72	0.002
869.90	0.002
870.08	0.003
870.26	0.003
870.44	0.003
870.62	0.003
870.80	0.003
870.98	0.003
871.16	0.003
871.34	0.004
871.53	0.004
871.71	0.004
871.89	0.004
872.07	0.004
872.25	0.004
872.43	0.004
872.61	0.004
872.79	0.004
872.97	0.004
873.15	0.004
873.33	0.004
873.51	0.004
873.69	0.005
873.87	0.005
874.05	0.005
874.23	0.005
874.41	0.005
874.59	0.005
874.77	0.005
874.95	0.005
875.13	0.005
875.31	0.005
875.49	0.005
875.67	0.005
875.85	0.005
876.03	0.004
876.21	0.004
876.39	0.005
876.57	0.004
876.75	0.004
876.93	0.004
877.11	0.004
877.29	0.004
877.47	0.004
877.65	0.004
877.82	0.004
878.00	0.004
878.18	0.004
878.36	0.004
878.54	0.004
878.72	0.004
878.90	0.004
879.08	0.004
879.26	0.004
879.44	0.004
879.62	0.004
879.80	0.004
879.98	0.004
880.16	0.004
880.34	0.003
880.52	0.004
880.70	0.004
880.88	0.004
881.06	0.003
881.24	0.003
881.42	0.003
881.59	0.003
881.77	0.003
881.95	0.003
882.13	0.003
882.31	0.003
882.49	0.003
882.67	0.003
882.85	0.003
883.03	0.003
883.21	0.003
883.39	0.003
883.57	0.003
883.75	0.003
883.92	0.004
884.10	0.004
884.28	0.004
884.46	0.003
884.64	0.003
884.82	0.003
885.00	0.003
885.18	0.003
885.36	0.003
885.54	0.002
885.71	0.002
885.89	0.002
886.07	0.002
886.25	0.003
886.43	0.003
886.61	0.003
886.79	0.003
886.97	0.002
887.15	0.002
887.32	0.003
887.50	0.003
887.68	0.003
887.86	0.002
888.04	0.002
888.22	0.002
888.40	0.002
888.57	0.002
888.75	0.002
888.93	0.002
889.11	0.002
889.29	0.002
889.47	0.002
889.65	0.002
889.82	0.003
890.00	0.003
890.18	0.003
890.36	0.003
890.54	0.003
890.72	0.003
890.90	0.004
891.07	0.004
891.25	0.004
891.43	0.004
891.61	0.004
891.79	0.004
891.97	0.004
892.14	0.004
892.32	0.004
892.50	0.004
892.68	0.004
892.86	0.005
893.03	0.005
893.21	0.005
893.39	0.005
893.57	0.005
893.75	0.005
893.93	0.005
894.10	0.005
894.28	0.006
894.46	0.006
894.64	0.006
894.82	0.005
894.99	0.005
895.17	0.005
895.35	0.005
895.53	0.005
895.71	0.005
895.88	0.005
896.06	0.005
896.24	0.005
896.42	0.005
896.59	0.005
896.77	0.005
896.95	0.004
897.13	0.004
897.31	0.004
897.48	0.004
897.66	0.005
897.84	0.005
898.02	0.005
898.19	0.005
898.37	0.005
898.55	0.006
898.73	0.005
898.91	0.006
899.08	0.005
899.26	0.006
899.44	0.006
899.62	0.006
899.79	0.006
899.97	0.006
900.15	0.006
900.33	0.006
900.50	0.005
900.68	0.006
900.86	0.006
901.04	0.006
901.21	0.006
901.39	0.006
901.57	0.006
901.74	0.006
901.92	0.006
902.10	0.006
902.28	0.006
902.45	0.006
902.63	0.006
902.81	0.006
902.99	0.006
903.16	0.006
903.34	0.007
903.52	0.007
903.69	0.007
903.87	0.007
904.05	0.007
904.22	0.007
904.40	0.008
904.58	0.008
904.76	0.008
904.93	0.008
905.11	0.008
905.29	0.009
905.46	0.009
905.64	0.009
905.82	0.009
905.99	0.009
906.17	0.010
906.35	0.010
906.53	0.010
906.70	0.010
906.88	0.010
907.06	0.011
907.23	0.011
907.41	0.011
907.59	0.011
907.76	0.012
907.94	0.012
908.12	0.012
908.29	0.013
908.47	0.013
908.65	0.014
908.82	0.014
909.00	0.015
909.18	0.015
909.35	0.015
909.53	0.015
909.71	0.015
909.88	0.016
910.06	0.016
910.23	0.016
910.41	0.016
910.59	0.017
910.76	0.017
910.94	0.017
911.12	0.018
911.29	0.018
911.47	0.018
911.65	0.019
911.82	0.018
912.00	0.019
912.17	0.019
912.35	0.019
912.53	0.020
912.70	0.020
912.88	0.020
913.06	0.020
913.23	0.020
913.41	0.020
913.58	0.021
913.76	0.021
913.94	0.021
914.11	0.022
914.29	0.022
914.46	0.022
914.64	0.022
914.82	0.022
914.99	0.023
915.17	0.023
915.34	0.024
915.52	0.024
915.70	0.024
915.87	0.025
916.05	0.025
916.22	0.025
916.40	0.026
916.57	0.026
916.75	0.026
916.93	0.027
917.10	0.027
917.28	0.027
917.45	0.028
917.63	0.028
917.80	0.028
917.98	0.029
918.16	0.029
918.33	0.029
918.51	0.029
918.68	0.030
918.86	0.030
919.03	0.030
919.21	0.030
919.39	0.030
919.56	0.031
919.74	0.031
919.91	0.031
920.09	0.032
920.26	0.032
920.44	0.032
920.61	0.032
920.79	0.033
920.96	0.033
921.14	0.033
921.31	0.034
921.49	0.034
921.67	0.034
921.84	0.034
922.02	0.034
922.19	0.034
922.37	0.035
922.54	0.035
922.72	0.036
922.89	0.036
923.07	0.036
923.24	0.037
923.42	0.037
923.59	0.037
923.77	0.038
923.94	0.038
924.12	0.038
924.29	0.039
924.47	0.039
924.64	0.039
924.82	0.039
924.99	0.039
925.17	0.040
925.34	0.040
925.52	0.040
925.69	0.040
925.87	0.041
926.04	0.041
926.22	0.041
926.39	0.041
926.57	0.041
926.74	0.041
926.91	0.041
927.09	0.041
927.26	0.041
927.44	0.040
927.61	0.040
927.79	0.040
927.96	0.040
928.14	0.040
928.31	0.040
928.49	0.039
928.66	0.039
928.84	0.039
929.01	0.039
929.18	0.038
929.36	0.038
929.53	0.038
929.71	0.037
929.88	0.037
930.06	0.036
930.23	0.036
930.41	0.035
930.58	0.035
930.75	0.034
930.93	0.033
931.10	0.033
931.28	0.032
931.45	0.031
931.63	0.030
931.80	0.029
931.97	0.029
932.15	0.028
932.32	0.027
932.50	0.026
932.67	0.025
932.84	0.025
933.02	0.023
933.19	0.023
933.37	0.022
933.54	0.021
933.71	0.021
933.89	0.020
934.06	0.018
934.24	0.017
934.41	0.016
934.58	0.016
934.76	0.014
934.93	0.013
935.11	0.012
935.28	0.011
935.45	0.010
935.63	0.009
935.80	0.007
935.98	0.006
936.15	0.005
936.32	0.004
936.50	0.002
936.67	0.001
936.84	-0.000
937.02	-0.002
937.19	-0.003
937.36	-0.005
937.54	-0.007
937.71	-0.008
937.89	-0.009
938.06	-0.011
938.23	-0.012
938.41	-0.013
938.58	-0.015
938.75	-0.016
938.93	-0.017
939.10	-0.018
939.27	-0.019
939.45	-0.021
939.62	-0.022
939.79	-0.023
939.97	-0.025
940.14	-0.026
940.31	-0.028
940.49	-0.029
940.66	-0.031
940.83	-0.032
941.01	-0.034
941.18	-0.035
941.35	-0.037
941.53	-0.038
941.70	-0.039
941.87	-0.041
942.05	-0.042
942.22	-0.043
942.39	-0.045
942.57	-0.046
942.74	-0.047
942.91	-0.048
943.08	-0.049
943.26	-0.051
943.43	-0.052
943.60	-0.053
943.78	-0.054
943.95	-0.055
944.12	-0.056
944.29	-0.057
944.47	-0.059
944.64	-0.061
944.81	-0.062
944.99	-0.063
945.16	-0.064
945.33	-0.066
945.50	-0.067
945.68	-0.068
945.85	-0.069
946.02	-0.071
946.20	-0.072
946.37	-0.073
946.54	-0.074
946.71	-0.075
946.89	-0.076
947.06	-0.078
947.23	-0.079
947.40	-0.080
947.58	-0.082
947.75	-0.083
947.92	-0.085
948.09	-0.086
948.27	-0.087
948.44	-0.089
948.61	-0.090
948.78	-0.092
948.96	-0.093
949.13	-0.094
949.30	-0.096
949.47	-0.097
949.65	-0.098
949.82	-0.100
949.99	-0.101
950.16	-0.103
950.33	-0.104
950.51	-0.106
950.68	-0.107
950.85	-0.109
951.02	-0.110
951.20	-0.112
951.37	-0.113
951.54	-0.115
951.71	-0.116
951.88	-0.117
952.06	-0.118
952.23	-0.120
952.40	-0.121
952.57	-0.123
952.74	-0.124
952.92	-0.125
953.09	-0.127
953.26	-0.128
953.43	-0.129
953.60	-0.131
953.77	-0.132
953.95	-0.133
954.12	-0.135
954.29	-0.136
954.46	-0.137
954.63	-0.139
954.81	-0.140
954.98	-0.141
955.15	-0.143
955.32	-0.144
955.49	-0.145
955.66	-0.147
955.84	-0.148
956.01	-0.149
956.18	-0.151
956.35	-0.152
956.52	-0.152
956.69	-0.154
956.87	-0.155
957.04	-0.156
957.21	-0.157
957.38	-0.158
957.55	-0.159
957.72	-0.160
957.89	-0.161
958.07	-0.162
958.24	-0.163
958.41	-0.164
958.58	-0.165
958.75	-0.165
958.92	-0.166
959.09	-0.167
959.26	-0.167
959.44	-0.168
959.61	-0.169
959.78	-0.170
959.95	-0.170
960.12	-0.171
960.29	-0.171
960.46	-0.172
960.63	-0.173
960.81	-0.173
960.98	-0.174
961.15	-0.175
961.32	-0.175
961.49	-0.176
961.66	-0.177
961.83	-0.177
962.00	-0.178
962.17	-0.179
962.34	-0.179
962.52	-0.179
962.69	-0.180
962.86	-0.180
963.03	-0.180
963.20	-0.180
963.37	-0.181
963.54	-0.181
963.71	-0.181
963.88	-0.182
964.05	-0.182
964.22	-0.182
964.39	-0.183
964.56	-0.183
964.74	-0.183
964.91	-0.183
965.08	-0.184
965.25	-0.184
965.42	-0.184
965.59	-0.184
965.76	-0.184
965.93	-0.184
966.10	-0.184
966.27	-0.184
966.44	-0.185
966.61	-0.184
966.78	-0.185
966.95	-0.185
967.12	-0.185
967.29	-0.185
967.46	-0.186
967.63	-0.186
967.80	-0.186
967.97	-0.186
968.14	-0.186
968.32	-0.186
968.49	-0.186
968.66	-0.187
968.83	-0.187
969.00	-0.186
969.17	-0.186
969.34	-0.186
969.51	-0.187
969.68	-0.187
969.85	-0.187
970.02	-0.188
970.19	-0.188
970.36	-0.188
970.53	-0.189
970.70	-0.189
970.87	-0.189
971.04	-0.189
971.21	-0.190
971.38	-0.190
971.55	-0.190
971.72	-0.190
971.89	-0.190
972.06	-0.190
972.23	-0.190
972.40	-0.190
972.57	-0.190
972.74	-0.190
972.91	-0.191
973.07	-0.191
973.24	-0.191
973.41	-0.191
973.58	-0.191
973.75	-0.190
973.92	-0.190
974.09	-0.190
974.26	-0.190
974.43	-0.190
974.60	-0.191
974.77	-0.191
974.94	-0.190
975.11	-0.190
975.28	-0.190
975.45	-0.190
975.62	-0.190
975.79	-0.191
975.96	-0.190
976.13	-0.190
976.30	-0.190
976.47	-0.191
976.64	-0.191
976.80	-0.191
976.97	-0.191
977.14	-0.190
977.31	-0.191
977.48	-0.190
977.65	-0.190
977.82	-0.190
977.99	-0.190
978.16	-0.190
978.33	-0.189
978.50	-0.189
978.67	-0.189
978.83	-0.189
979.00	-0.189
979.17	-0.189
979.34	-0.189
979.51	-0.189
979.68	-0.188
979.85	-0.188
980.02	-0.188
980.19	-0.188
980.36	-0.188
980.52	-0.188
980.69	-0.188
980.86	-0.188
981.03	-0.187
981.20	-0.187
981.37	-0.187
981.54	-0.187
981.71	-0.186
981.88	-0.186
982.04	-0.185
982.21	-0.185
982.38	-0.185
982.55	-0.186
982.72	-0.185
982.89	-0.185
983.06	-0.185
983.22	-0.185
983.39	-0.185
983.56	-0.185
983.73	-0.184
983.90	-0.184
984.07	-0.184
984.24	-0.184
984.40	-0.184
984.57	-0.184
984.74	-0.183
984.91	-0.183
985.08	-0.182
985.25	-0.182
985.41	-0.182
985.58	-0.182
985.75	-0.181
985.92	-0.181
986.09	-0.180
986.26	-0.180
986.42	-0.180
986.59	-0.179
986.76	-0.179
986.93	-0.179
987.10	-0.179
987.27	-0.178
987.43	-0.178
987.60	-0.177
987.77	-0.177
987.94	-0.176
988.11	-0.176
988.27	-0.176
988.44	-0.176
988.61	-0.176
988.78	-0.175
988.95	-0.174
989.11	-0.174
989.28	-0.174
989.45	-0.174
989.62	-0.174
989.79	-0.173
989.95	-0.173
990.12	-0.172
990.29	-0.172
990.46	-0.172
990.62	-0.172
990.79	-0.172
990.96	-0.171
991.13	-0.171
991.30	-0.170
991.46	-0.169
991.63	-0.169
991.80	-0.169
991.97	-0.168
992.13	-0.167
992.30	-0.167
992.47	-0.166
992.64	-0.166
992.80	-0.166
992.97	-0.166
993.14	-0.165
993.31	-0.165
993.47	-0.165
993.64	-0.165
993.81	-0.165
993.98	-0.164
994.14	-0.164
994.31	-0.164
994.48	-0.163
994.64	-0.163
994.81	-0.163
994.98	-0.162
995.15	-0.162
995.31	-0.161
995.48	-0.161
995.65	-0.160
995.82	-0.160
995.98	-0.159
996.15	-0.159
996.32	-0.158
996.48	-0.158
996.65	-0.156
996.82	-0.156
996.99	-0.155
997.15	-0.154
997.32	-0.154
997.49	-0.154
997.65	-0.153
997.82	-0.152
997.99	-0.151
998.15	-0.151
998.32	-0.150
998.49	-0.151
998.65	-0.151
998.82	-0.151
998.99	-0.150
999.15	-0.150
999.32	-0.149
999.49	-0.149
999.65	-0.148
999.82	-0.148
999.99	-0.147
1000.15	-0.148
1000.32	-0.147
1000.49	-0.146
1000.65	-0.146
1000.82	-0.146
1000.99	-0.146
1001.15	-0.145
1001.32	-0.144
1001.49	-0.145
1001.65	-0.145
1001.82	-0.144
1001.99	-0.143
1002.15	-0.142
1002.32	-0.142
1002.49	-0.141
1002.65	-0.140
1002.82	-0.138
1002.99	-0.138
1003.15	-0.139
1003.32	-0.138
1003.48	-0.137
1003.65	-0.137
1003.82	-0.137
1003.98	-0.136
1004.15	-0.135
1004.32	-0.135
1004.48	-0.135
1004.65	-0.135
1004.81	-0.134
1004.98	-0.134
1005.15	-0.133
1005.31	-0.132
1005.48	-0.132
1005.64	-0.131
1005.81	-0.131
1005.98	-0.131
1006.14	-0.130
1006.31	-0.129
1006.47	-0.129
1006.64	-0.128
1006.81	-0.127
1006.97	-0.126
1007.14	-0.127
1007.30	-0.127
1007.47	-0.127
1007.63	-0.126
1007.80	-0.126
1007.97	-0.126
1008.13	-0.125
1008.30	-0.124
1008.46	-0.124
1008.63	-0.123
1008.79	-0.123
1008.96	-0.122
1009.13	-0.121
1009.29	-0.120
1009.46	-0.119
1009.62	-0.118
1009.79	-0.117
1009.95	-0.116
1010.12	-0.116
1010.28	-0.115
1010.45	-0.115
1010.62	-0.114
1010.78	-0.114
1010.95	-0.114
1011.11	-0.113
1011.28	-0.113
1011.44	-0.112
1011.61	-0.112
1011.77	-0.112
1011.94	-0.111
1012.10	-0.110
1012.27	-0.109
1012.43	-0.109
1012.60	-0.108
1012.76	-0.107
1012.93	-0.108
1013.10	-0.107
1013.26	-0.106
1013.43	-0.105
1013.59	-0.104
1013.76	-0.104
1013.92	-0.103
1014.09	-0.102
1014.25	-0.102
1014.42	-0.101
1014.58	-0.100
1014.75	-0.099
1014.91	-0.098
1015.08	-0.098
1015.24	-0.098
1015.41	-0.097
1015.57	-0.097
1015.73	-0.097
1015.90	-0.097
1016.06	-0.096
1016.23	-0.096
1016.39	-0.096
1016.56	-0.095
1016.72	-0.095
1016.89	-0.094
1017.05	-0.094
1017.22	-0.094
1017.38	-0.093
1017.55	-0.092
1017.71	-0.092
1017.88	-0.091
1018.04	-0.091
1018.21	-0.090
1018.37	-0.090
1018.53	-0.089
1018.70	-0.090
1018.86	-0.089
1019.03	-0.089
1019.19	-0.088
1019.36	-0.089
1019.52	-0.089
1019.69	-0.089
1019.85	-0.088
1020.01	-0.087
1020.18	-0.087
1020.34	-0.087
1020.51	-0.086
1020.67	-0.087
1020.84	-0.087
1021.00	-0.086
1021.16	-0.085
1021.33	-0.083
1021.49	-0.083
1021.66	-0.082
1021.82	-0.082
1021.98	-0.081
1022.15	-0.081
1022.31	-0.081
1022.48	-0.080
1022.64	-0.080
1022.80	-0.080
1022.97	-0.079
1023.13	-0.080
1023.30	-0.079
1023.46	-0.080
1023.62	-0.079
1023.79	-0.080
1023.95	-0.079
1024.12	-0.078
1024.28	-0.077
1024.44	-0.078
1024.61	-0.077
1024.77	-0.078
1024.93	-0.077
1025.10	-0.076
1025.26	-0.075
1025.43	-0.074
1025.59	-0.073
1025.75	-0.073
1025.92	-0.073
1026.08	-0.073
1026.24	-0.071
1026.41	-0.070
1026.57	-0.069
1026.73	-0.069
1026.90	-0.070
1027.06	-0.070
1027.23	-0.069
1027.39	-0.069
1027.55	-0.068
1027.72	-0.068
1027.88	-0.067
1028.04	-0.067
1028.21	-0.066
1028.37	-0.066
1028.53	-0.064
1028.70	-0.063
1028.86	-0.063
1029.02	-0.062
1029.19	-0.063
1029.35	-0.063
1029.51	-0.061
1029.67	-0.061
1029.84	-0.061
1030.00	-0.060
1030.16	-0.060
1030.33	-0.060
1030.49	-0.059
1030.65	-0.059
1030.82	-0.058
1030.98	-0.056
1031.14	-0.056
1031.31	-0.056
1031.47	-0.055
1031.63	-0.055
1031.79	-0.055
1031.96	-0.055
1032.12	-0.054
1032.28	-0.054
1032.45	-0.054
1032.61	-0.055
1032.77	-0.055
1032.93	-0.054
1033.10	-0.053
1033.26	-0.052
1033.42	-0.052
1033.58	-0.050
1033.75	-0.049
1033.91	-0.048
1034.07	-0.048
1034.24	-0.047
1034.40	-0.046
1034.56	-0.045
1034.72	-0.045
1034.89	-0.046
1035.05	-0.046
1035.21	-0.045
1035.37	-0.046
1035.54	-0.047
1035.70	-0.046
1035.86	-0.046
1036.02	-0.046
1036.19	-0.045
1036.35	-0.046
1036.51	-0.045
1036.67	-0.044
1036.83	-0.043
1037.00	-0.044
1037.16	-0.043
1037.32	-0.042
1037.48	-0.042
1037.65	-0.042
1037.81	-0.041
1037.97	-0.042
1038.13	-0.040
1038.29	-0.039
1038.46	-0.039
1038.62	-0.040
1038.78	-0.041
1038.94	-0.041
1039.10	-0.041
1039.27	-0.041
1039.43	-0.041
1039.59	-0.040
1039.75	-0.040
1039.91	-0.040
1040.08	-0.040
1040.24	-0.039
1040.40	-0.039
1040.56	-0.037
1040.72	-0.037
1040.89	-0.036
1041.05	-0.035
1041.21	-0.035
1041.37	-0.036
1041.53	-0.035
1041.69	-0.033
1041.86	-0.033
1042.02	-0.033
1042.18	-0.033
1042.34	-0.032
1042.50	-0.032
1042.66	-0.032
1042.83	-0.032
1042.99	-0.031
1043.15	-0.031
1043.31	-0.031
1043.47	-0.033
1043.63	-0.032
1043.79	-0.032
1043.96	-0.031
1044.12	-0.031
1044.28	-0.031
1044.44	-0.032
1044.60	-0.031
1044.76	-0.032
1044.92	-0.032
1045.09	-0.031
1045.25	-0.031
1045.41	-0.031
1045.57	-0.031
1045.73	-0.031
1045.89	-0.032
1046.05	-0.031
1046.21	-0.034
1046.38	-0.025
1046.54	-0.030
1046.70	-0.044
1046.86	-0.017
>>>>>End Processed Spectral Data<<<<<
