SpectraSuite Data File
++++++++++++++++++++++++++++++++++++
Date: Mon May 06 13:28:04 CDT 2013
User: Students
Dark Spectrum Present: Yes
Reference Spectrum Present: Yes
Number of Sampled Component Spectra: 1
Spectrometers: USB4H00887
Integration Time (usec): 50000 (USB4H00887)
Spectra Averaged: 10 (USB4H00887)
Boxcar Smoothing: 5 (USB4H00887)
Correct for Electrical Dark: No (USB4H00887)
Strobe/Lamp Enabled: No (USB4H00887)
Correct for Detector Non-linearity: No (USB4H00887)
Correct for Stray Light: No (USB4H00887)
Number of Pixels in Processed Spectrum: 3648
>>>>>Begin Processed Spectral Data<<<<<
345.83	-0.000
346.05	-0.000
346.26	-0.000
346.48	0.141
346.70	-0.000
346.92	-0.000
347.14	0.054
347.35	-0.057
347.57	-0.187
347.79	-0.057
348.01	-0.091
348.23	-0.253
348.44	-0.334
348.66	-0.178
348.88	-0.178
349.10	-0.122
349.32	-0.088
349.53	-0.029
349.75	-0.112
349.97	-0.121
350.19	-0.131
350.41	-0.124
350.62	-0.124
350.84	-0.102
351.06	-0.088
351.28	-0.038
351.50	-0.040
351.71	-0.051
351.93	-0.075
352.15	-0.010
352.37	-0.026
352.58	-0.028
352.80	-0.064
353.02	-0.025
353.24	-0.035
353.46	-0.055
353.67	-0.150
353.89	-0.126
354.11	-0.091
354.33	-0.103
354.54	-0.142
354.76	-0.129
354.98	-0.124
355.20	-0.131
355.41	-0.126
355.63	-0.123
355.85	-0.119
356.07	-0.113
356.28	-0.139
356.50	-0.159
356.72	-0.142
356.94	-0.139
357.15	-0.127
357.37	-0.143
357.59	-0.136
357.81	-0.130
358.02	-0.112
358.24	-0.059
358.46	-0.041
358.68	0.000
358.89	0.007
359.11	0.008
359.33	0.013
359.55	-0.005
359.76	0.019
359.98	0.028
360.20	0.037
360.42	0.010
360.63	-0.029
360.85	0.005
361.07	-0.025
361.29	-0.026
361.50	-0.047
361.72	-0.038
361.94	-0.012
362.15	-0.041
362.37	-0.046
362.59	-0.048
362.81	-0.052
363.02	-0.080
363.24	-0.077
363.46	-0.064
363.68	-0.060
363.89	-0.042
364.11	-0.037
364.33	-0.062
364.54	-0.036
364.76	-0.049
364.98	-0.063
365.20	-0.052
365.41	-0.016
365.63	-0.037
365.85	-0.063
366.06	-0.056
366.28	-0.041
366.50	-0.023
366.71	0.030
366.93	0.041
367.15	0.079
367.37	0.101
367.58	0.131
367.80	0.138
368.02	0.158
368.23	0.172
368.45	0.149
368.67	0.149
368.88	0.154
369.10	0.117
369.32	0.077
369.53	0.047
369.75	0.061
369.97	0.018
370.19	0.006
370.40	0.009
370.62	0.001
370.84	0.017
371.05	0.030
371.27	0.017
371.49	0.028
371.70	0.071
371.92	0.086
372.14	0.036
372.35	0.035
372.57	0.048
372.79	0.025
373.00	0.045
373.22	0.048
373.44	0.022
373.65	0.028
373.87	0.033
374.09	-0.003
374.30	0.004
374.52	0.034
374.74	0.063
374.95	0.070
375.17	0.096
375.39	0.105
375.60	0.093
375.82	0.081
376.04	0.102
376.25	0.079
376.47	0.093
376.68	0.081
376.90	0.078
377.12	0.090
377.33	0.093
377.55	0.091
377.77	0.073
377.98	0.098
378.20	0.136
378.42	0.135
378.63	0.170
378.85	0.182
379.07	0.192
379.28	0.180
379.50	0.161
379.71	0.175
379.93	0.174
380.15	0.193
380.36	0.190
380.58	0.177
380.80	0.156
381.01	0.158
381.23	0.146
381.44	0.126
381.66	0.121
381.88	0.108
382.09	0.106
382.31	0.126
382.53	0.122
382.74	0.128
382.96	0.135
383.17	0.147
383.39	0.127
383.61	0.116
383.82	0.111
384.04	0.119
384.25	0.138
384.47	0.139
384.69	0.125
384.90	0.096
385.12	0.107
385.33	0.120
385.55	0.130
385.77	0.133
385.98	0.136
386.20	0.165
386.41	0.185
386.63	0.193
386.85	0.194
387.06	0.189
387.28	0.246
387.49	0.260
387.71	0.258
387.93	0.243
388.14	0.262
388.36	0.297
388.57	0.316
388.79	0.300
389.01	0.294
389.22	0.295
389.44	0.300
389.65	0.283
389.87	0.284
390.08	0.287
390.30	0.308
390.52	0.298
390.73	0.306
390.95	0.291
391.16	0.316
391.38	0.325
391.59	0.300
391.81	0.297
392.03	0.293
392.24	0.301
392.46	0.275
392.67	0.264
392.89	0.266
393.10	0.254
393.32	0.251
393.53	0.264
393.75	0.245
393.97	0.285
394.18	0.287
394.40	0.281
394.61	0.284
394.83	0.310
395.04	0.327
395.26	0.320
395.47	0.329
395.69	0.327
395.91	0.314
396.12	0.365
396.34	0.366
396.55	0.375
396.77	0.385
396.98	0.368
397.20	0.372
397.41	0.366
397.63	0.403
397.84	0.400
398.06	0.397
398.27	0.413
398.49	0.404
398.71	0.409
398.92	0.389
399.14	0.426
399.35	0.449
399.57	0.429
399.78	0.424
400.00	0.393
400.21	0.392
400.43	0.415
400.64	0.396
400.86	0.372
401.07	0.354
401.29	0.380
401.50	0.356
401.72	0.339
401.93	0.339
402.15	0.340
402.36	0.355
402.58	0.354
402.79	0.370
403.01	0.385
403.22	0.395
403.44	0.418
403.65	0.411
403.87	0.401
404.08	0.406
404.30	0.423
404.51	0.444
404.73	0.449
404.94	0.450
405.16	0.461
405.37	0.457
405.59	0.468
405.80	0.460
406.02	0.461
406.23	0.469
406.45	0.471
406.66	0.453
406.88	0.430
407.09	0.429
407.31	0.435
407.52	0.413
407.74	0.409
407.95	0.412
408.17	0.414
408.38	0.425
408.60	0.440
408.81	0.430
409.03	0.448
409.24	0.447
409.45	0.444
409.67	0.437
409.88	0.438
410.10	0.445
410.31	0.440
410.53	0.449
410.74	0.455
410.96	0.441
411.17	0.452
411.39	0.455
411.60	0.481
411.82	0.473
412.03	0.475
412.24	0.471
412.46	0.471
412.67	0.464
412.89	0.464
413.10	0.446
413.32	0.452
413.53	0.458
413.75	0.452
413.96	0.438
414.17	0.445
414.39	0.439
414.60	0.442
414.82	0.445
415.03	0.449
415.25	0.445
415.46	0.449
415.68	0.463
415.89	0.473
416.10	0.494
416.32	0.482
416.53	0.488
416.75	0.487
416.96	0.485
417.18	0.495
417.39	0.508
417.60	0.504
417.82	0.505
418.03	0.491
418.25	0.486
418.46	0.467
418.67	0.482
418.89	0.468
419.10	0.488
419.32	0.496
419.53	0.477
419.75	0.465
419.96	0.466
420.17	0.471
420.39	0.479
420.60	0.483
420.82	0.498
421.03	0.496
421.24	0.499
421.46	0.476
421.67	0.473
421.89	0.476
422.10	0.476
422.31	0.482
422.53	0.476
422.74	0.477
422.96	0.478
423.17	0.469
423.38	0.476
423.60	0.481
423.81	0.489
424.03	0.504
424.24	0.515
424.45	0.527
424.67	0.511
424.88	0.516
425.09	0.511
425.31	0.498
425.52	0.509
425.74	0.507
425.95	0.520
426.16	0.533
426.38	0.521
426.59	0.524
426.80	0.524
427.02	0.544
427.23	0.551
427.45	0.565
427.66	0.581
427.87	0.563
428.09	0.558
428.30	0.553
428.51	0.553
428.73	0.557
428.94	0.551
429.15	0.535
429.37	0.516
429.58	0.523
429.79	0.520
430.01	0.524
430.22	0.540
430.44	0.544
430.65	0.549
430.86	0.549
431.08	0.551
431.29	0.546
431.50	0.553
431.72	0.569
431.93	0.557
432.14	0.556
432.36	0.539
432.57	0.530
432.78	0.531
433.00	0.523
433.21	0.527
433.42	0.521
433.64	0.530
433.85	0.534
434.06	0.531
434.28	0.533
434.49	0.535
434.70	0.532
434.92	0.530
435.13	0.534
435.34	0.542
435.56	0.538
435.77	0.544
435.98	0.546
436.20	0.541
436.41	0.540
436.62	0.538
436.83	0.534
437.05	0.552
437.26	0.551
437.47	0.546
437.69	0.535
437.90	0.539
438.11	0.530
438.33	0.525
438.54	0.535
438.75	0.532
438.97	0.529
439.18	0.532
439.39	0.531
439.60	0.538
439.82	0.534
440.03	0.539
440.24	0.532
440.46	0.533
440.67	0.532
440.88	0.522
441.10	0.521
441.31	0.524
441.52	0.522
441.73	0.510
441.95	0.505
442.16	0.506
442.37	0.514
442.58	0.517
442.80	0.520
443.01	0.517
443.22	0.525
443.44	0.533
443.65	0.535
443.86	0.535
444.07	0.546
444.29	0.552
444.50	0.553
444.71	0.540
444.92	0.534
445.14	0.539
445.35	0.544
445.56	0.540
445.78	0.532
445.99	0.533
446.20	0.528
446.41	0.519
446.63	0.521
446.84	0.515
447.05	0.516
447.26	0.520
447.48	0.512
447.69	0.511
447.90	0.511
448.11	0.515
448.33	0.511
448.54	0.511
448.75	0.515
448.96	0.511
449.18	0.515
449.39	0.518
449.60	0.516
449.81	0.510
450.03	0.505
450.24	0.502
450.45	0.498
450.66	0.498
450.87	0.502
451.09	0.503
451.30	0.505
451.51	0.501
451.72	0.497
451.94	0.496
452.15	0.501
452.36	0.504
452.57	0.507
452.78	0.507
453.00	0.504
453.21	0.501
453.42	0.496
453.63	0.493
453.85	0.493
454.06	0.496
454.27	0.496
454.48	0.499
454.69	0.500
454.91	0.496
455.12	0.497
455.33	0.496
455.54	0.493
455.75	0.493
455.97	0.487
456.18	0.487
456.39	0.480
456.60	0.477
456.81	0.474
457.03	0.473
457.24	0.477
457.45	0.474
457.66	0.477
457.87	0.475
458.09	0.477
458.30	0.477
458.51	0.479
458.72	0.483
458.93	0.482
459.15	0.484
459.36	0.478
459.57	0.471
459.78	0.468
459.99	0.466
460.20	0.467
460.42	0.463
460.63	0.468
460.84	0.466
461.05	0.465
461.26	0.465
461.47	0.460
461.69	0.461
461.90	0.463
462.11	0.462
462.32	0.462
462.53	0.460
462.74	0.460
462.96	0.457
463.17	0.455
463.38	0.453
463.59	0.450
463.80	0.451
464.01	0.453
464.23	0.453
464.44	0.454
464.65	0.456
464.86	0.457
465.07	0.460
465.28	0.459
465.49	0.462
465.71	0.466
465.92	0.469
466.13	0.469
466.34	0.469
466.55	0.470
466.76	0.468
466.97	0.465
467.19	0.469
467.40	0.466
467.61	0.465
467.82	0.462
468.03	0.459
468.24	0.457
468.45	0.455
468.66	0.454
468.88	0.449
469.09	0.450
469.30	0.449
469.51	0.446
469.72	0.446
469.93	0.447
470.14	0.450
470.35	0.449
470.57	0.449
470.78	0.447
470.99	0.446
471.20	0.449
471.41	0.447
471.62	0.449
471.83	0.448
472.04	0.450
472.25	0.449
472.47	0.447
472.68	0.448
472.89	0.447
473.10	0.449
473.31	0.449
473.52	0.449
473.73	0.451
473.94	0.450
474.15	0.452
474.36	0.449
474.57	0.449
474.79	0.450
475.00	0.451
475.21	0.452
475.42	0.452
475.63	0.453
475.84	0.450
476.05	0.449
476.26	0.448
476.47	0.446
476.68	0.446
476.89	0.445
477.10	0.447
477.32	0.444
477.53	0.441
477.74	0.442
477.95	0.441
478.16	0.442
478.37	0.444
478.58	0.444
478.79	0.443
479.00	0.443
479.21	0.440
479.42	0.438
479.63	0.438
479.84	0.439
480.05	0.436
480.26	0.436
480.47	0.436
480.69	0.434
480.90	0.435
481.11	0.436
481.32	0.435
481.53	0.436
481.74	0.436
481.95	0.435
482.16	0.434
482.37	0.435
482.58	0.435
482.79	0.434
483.00	0.435
483.21	0.432
483.42	0.431
483.63	0.430
483.84	0.430
484.05	0.430
484.26	0.430
484.47	0.431
484.68	0.430
484.89	0.429
485.10	0.429
485.31	0.428
485.52	0.428
485.73	0.428
485.94	0.428
486.15	0.427
486.37	0.425
486.58	0.425
486.79	0.424
487.00	0.425
487.21	0.425
487.42	0.424
487.63	0.423
487.84	0.422
488.05	0.422
488.26	0.421
488.47	0.422
488.68	0.423
488.89	0.423
489.10	0.422
489.31	0.420
489.52	0.420
489.73	0.420
489.94	0.421
490.15	0.420
490.36	0.419
490.57	0.420
490.78	0.420
490.99	0.418
491.20	0.417
491.41	0.417
491.62	0.416
491.83	0.415
492.04	0.414
492.25	0.412
492.45	0.412
492.66	0.412
492.87	0.412
493.08	0.411
493.29	0.410
493.50	0.410
493.71	0.410
493.92	0.411
494.13	0.412
494.34	0.412
494.55	0.413
494.76	0.412
494.97	0.411
495.18	0.411
495.39	0.410
495.60	0.410
495.81	0.409
496.02	0.407
496.23	0.407
496.44	0.405
496.65	0.404
496.86	0.402
497.07	0.403
497.28	0.402
497.49	0.401
497.70	0.401
497.91	0.400
498.12	0.400
498.32	0.400
498.53	0.399
498.74	0.399
498.95	0.398
499.16	0.396
499.37	0.395
499.58	0.395
499.79	0.394
500.00	0.393
500.21	0.393
500.42	0.391
500.63	0.391
500.84	0.389
501.05	0.389
501.26	0.388
501.46	0.389
501.67	0.389
501.88	0.387
502.09	0.387
502.30	0.386
502.51	0.386
502.72	0.385
502.93	0.384
503.14	0.384
503.35	0.382
503.56	0.382
503.77	0.381
503.97	0.381
504.18	0.381
504.39	0.380
504.60	0.380
504.81	0.380
505.02	0.379
505.23	0.379
505.44	0.379
505.65	0.380
505.86	0.380
506.07	0.379
506.27	0.376
506.48	0.376
506.69	0.376
506.90	0.375
507.11	0.375
507.32	0.374
507.53	0.374
507.74	0.372
507.95	0.371
508.15	0.370
508.36	0.369
508.57	0.371
508.78	0.370
508.99	0.369
509.20	0.368
509.41	0.366
509.62	0.366
509.82	0.365
510.03	0.364
510.24	0.364
510.45	0.363
510.66	0.363
510.87	0.361
511.08	0.362
511.29	0.361
511.49	0.360
511.70	0.360
511.91	0.359
512.12	0.359
512.33	0.359
512.54	0.359
512.75	0.358
512.95	0.357
513.16	0.357
513.37	0.355
513.58	0.354
513.79	0.354
514.00	0.354
514.20	0.353
514.41	0.352
514.62	0.352
514.83	0.351
515.04	0.350
515.25	0.350
515.46	0.349
515.66	0.348
515.87	0.348
516.08	0.348
516.29	0.348
516.50	0.348
516.71	0.347
516.91	0.347
517.12	0.346
517.33	0.345
517.54	0.345
517.75	0.345
517.95	0.344
518.16	0.344
518.37	0.342
518.58	0.340
518.79	0.339
519.00	0.339
519.20	0.337
519.41	0.337
519.62	0.337
519.83	0.336
520.04	0.335
520.24	0.334
520.45	0.332
520.66	0.333
520.87	0.332
521.08	0.332
521.28	0.331
521.49	0.330
521.70	0.330
521.91	0.329
522.12	0.328
522.32	0.328
522.53	0.328
522.74	0.328
522.95	0.327
523.16	0.326
523.36	0.325
523.57	0.324
523.78	0.324
523.99	0.323
524.20	0.322
524.40	0.323
524.61	0.322
524.82	0.322
525.03	0.321
525.23	0.320
525.44	0.319
525.65	0.319
525.86	0.319
526.06	0.318
526.27	0.317
526.48	0.316
526.69	0.315
526.90	0.315
527.10	0.313
527.31	0.312
527.52	0.312
527.73	0.312
527.93	0.312
528.14	0.311
528.35	0.310
528.56	0.309
528.76	0.309
528.97	0.308
529.18	0.307
529.39	0.306
529.59	0.305
529.80	0.303
530.01	0.302
530.22	0.302
530.42	0.301
530.63	0.300
530.84	0.298
531.05	0.297
531.25	0.297
531.46	0.295
531.67	0.296
531.88	0.294
532.08	0.294
532.29	0.293
532.50	0.292
532.70	0.291
532.91	0.291
533.12	0.291
533.33	0.290
533.53	0.289
533.74	0.289
533.95	0.287
534.15	0.287
534.36	0.285
534.57	0.285
534.78	0.284
534.98	0.282
535.19	0.281
535.40	0.281
535.60	0.279
535.81	0.278
536.02	0.277
536.23	0.277
536.43	0.276
536.64	0.276
536.85	0.274
537.05	0.273
537.26	0.272
537.47	0.270
537.67	0.269
537.88	0.267
538.09	0.267
538.30	0.266
538.50	0.264
538.71	0.263
538.92	0.261
539.12	0.261
539.33	0.260
539.54	0.259
539.74	0.258
539.95	0.258
540.16	0.256
540.36	0.255
540.57	0.253
540.78	0.251
540.98	0.250
541.19	0.249
541.40	0.247
541.60	0.246
541.81	0.245
542.02	0.243
542.22	0.242
542.43	0.241
542.64	0.240
542.84	0.239
543.05	0.239
543.26	0.237
543.46	0.235
543.67	0.235
543.88	0.233
544.08	0.232
544.29	0.230
544.50	0.230
544.70	0.228
544.91	0.227
545.12	0.225
545.32	0.223
545.53	0.222
545.74	0.221
545.94	0.219
546.15	0.217
546.35	0.216
546.56	0.215
546.77	0.214
546.97	0.212
547.18	0.210
547.39	0.209
547.59	0.208
547.80	0.207
548.01	0.206
548.21	0.204
548.42	0.204
548.62	0.202
548.83	0.201
549.04	0.200
549.24	0.199
549.45	0.198
549.65	0.197
549.86	0.196
550.07	0.194
550.27	0.193
550.48	0.191
550.69	0.190
550.89	0.189
551.10	0.187
551.30	0.186
551.51	0.184
551.72	0.183
551.92	0.182
552.13	0.181
552.33	0.179
552.54	0.178
552.75	0.177
552.95	0.175
553.16	0.174
553.36	0.172
553.57	0.170
553.78	0.169
553.98	0.167
554.19	0.165
554.39	0.164
554.60	0.162
554.80	0.161
555.01	0.159
555.22	0.158
555.42	0.157
555.63	0.155
555.83	0.154
556.04	0.153
556.25	0.152
556.45	0.151
556.66	0.150
556.86	0.149
557.07	0.148
557.27	0.146
557.48	0.145
557.68	0.143
557.89	0.142
558.10	0.141
558.30	0.140
558.51	0.138
558.71	0.137
558.92	0.135
559.12	0.134
559.33	0.132
559.54	0.131
559.74	0.130
559.95	0.129
560.15	0.128
560.36	0.127
560.56	0.126
560.77	0.124
560.97	0.123
561.18	0.122
561.38	0.121
561.59	0.120
561.79	0.119
562.00	0.117
562.21	0.116
562.41	0.115
562.62	0.114
562.82	0.112
563.03	0.111
563.23	0.110
563.44	0.109
563.64	0.108
563.85	0.107
564.05	0.105
564.26	0.105
564.46	0.104
564.67	0.103
564.87	0.101
565.08	0.100
565.28	0.100
565.49	0.099
565.69	0.098
565.90	0.097
566.10	0.096
566.31	0.094
566.51	0.093
566.72	0.093
566.92	0.091
567.13	0.091
567.33	0.089
567.54	0.088
567.74	0.088
567.95	0.087
568.15	0.086
568.36	0.085
568.56	0.084
568.77	0.083
568.97	0.082
569.18	0.081
569.38	0.080
569.59	0.079
569.79	0.078
570.00	0.077
570.20	0.076
570.41	0.075
570.61	0.074
570.82	0.073
571.02	0.072
571.23	0.071
571.43	0.070
571.64	0.069
571.84	0.069
572.05	0.068
572.25	0.067
572.45	0.067
572.66	0.066
572.86	0.065
573.07	0.065
573.27	0.064
573.48	0.064
573.68	0.063
573.89	0.063
574.09	0.062
574.30	0.061
574.50	0.061
574.70	0.060
574.91	0.060
575.11	0.059
575.32	0.058
575.52	0.057
575.73	0.057
575.93	0.056
576.14	0.056
576.34	0.055
576.54	0.054
576.75	0.054
576.95	0.054
577.16	0.053
577.36	0.052
577.57	0.052
577.77	0.051
577.97	0.051
578.18	0.050
578.38	0.050
578.59	0.049
578.79	0.049
579.00	0.048
579.20	0.047
579.40	0.047
579.61	0.047
579.81	0.046
580.02	0.046
580.22	0.045
580.42	0.045
580.63	0.045
580.83	0.044
581.04	0.044
581.24	0.044
581.45	0.044
581.65	0.043
581.85	0.042
582.06	0.042
582.26	0.042
582.47	0.042
582.67	0.041
582.87	0.041
583.08	0.041
583.28	0.040
583.48	0.040
583.69	0.040
583.89	0.040
584.10	0.040
584.30	0.039
584.50	0.039
584.71	0.039
584.91	0.038
585.12	0.038
585.32	0.038
585.52	0.037
585.73	0.037
585.93	0.036
586.13	0.036
586.34	0.035
586.54	0.035
586.75	0.035
586.95	0.035
587.15	0.035
587.36	0.034
587.56	0.034
587.76	0.034
587.97	0.034
588.17	0.034
588.37	0.034
588.58	0.034
588.78	0.034
588.98	0.034
589.19	0.034
589.39	0.034
589.60	0.034
589.80	0.034
590.00	0.033
590.21	0.033
590.41	0.032
590.61	0.032
590.82	0.032
591.02	0.031
591.22	0.031
591.43	0.031
591.63	0.031
591.83	0.031
592.04	0.031
592.24	0.030
592.44	0.030
592.65	0.030
592.85	0.030
593.05	0.030
593.26	0.030
593.46	0.030
593.66	0.029
593.86	0.029
594.07	0.028
594.27	0.028
594.47	0.029
594.68	0.028
594.88	0.028
595.08	0.028
595.29	0.029
595.49	0.029
595.69	0.029
595.90	0.029
596.10	0.029
596.30	0.029
596.50	0.029
596.71	0.029
596.91	0.030
597.11	0.030
597.32	0.029
597.52	0.029
597.72	0.029
597.93	0.029
598.13	0.029
598.33	0.029
598.53	0.029
598.74	0.028
598.94	0.028
599.14	0.028
599.35	0.028
599.55	0.028
599.75	0.028
599.95	0.028
600.16	0.028
600.36	0.027
600.56	0.027
600.76	0.027
600.97	0.028
601.17	0.028
601.37	0.027
601.58	0.027
601.78	0.027
601.98	0.027
602.18	0.027
602.39	0.027
602.59	0.027
602.79	0.027
602.99	0.027
603.20	0.026
603.40	0.026
603.60	0.026
603.80	0.026
604.01	0.026
604.21	0.026
604.41	0.026
604.61	0.026
604.82	0.026
605.02	0.026
605.22	0.026
605.42	0.026
605.62	0.026
605.83	0.026
606.03	0.026
606.23	0.026
606.43	0.026
606.64	0.026
606.84	0.026
607.04	0.026
607.24	0.026
607.45	0.027
607.65	0.027
607.85	0.027
608.05	0.026
608.25	0.027
608.46	0.026
608.66	0.026
608.86	0.026
609.06	0.026
609.26	0.026
609.47	0.026
609.67	0.026
609.87	0.026
610.07	0.026
610.28	0.025
610.48	0.025
610.68	0.026
610.88	0.025
611.08	0.025
611.29	0.026
611.49	0.026
611.69	0.025
611.89	0.025
612.09	0.025
612.29	0.026
612.50	0.026
612.70	0.026
612.90	0.026
613.10	0.026
613.30	0.026
613.51	0.026
613.71	0.026
613.91	0.026
614.11	0.026
614.31	0.026
614.51	0.025
614.72	0.025
614.92	0.026
615.12	0.026
615.32	0.026
615.52	0.026
615.72	0.026
615.93	0.026
616.13	0.025
616.33	0.025
616.53	0.026
616.73	0.026
616.93	0.026
617.14	0.025
617.34	0.025
617.54	0.025
617.74	0.025
617.94	0.025
618.14	0.026
618.34	0.026
618.55	0.026
618.75	0.026
618.95	0.026
619.15	0.025
619.35	0.026
619.55	0.026
619.75	0.026
619.96	0.026
620.16	0.026
620.36	0.025
620.56	0.025
620.76	0.025
620.96	0.025
621.16	0.025
621.36	0.025
621.57	0.025
621.77	0.025
621.97	0.025
622.17	0.025
622.37	0.025
622.57	0.025
622.77	0.025
622.97	0.025
623.18	0.025
623.38	0.025
623.58	0.025
623.78	0.025
623.98	0.025
624.18	0.025
624.38	0.025
624.58	0.025
624.78	0.026
624.98	0.026
625.19	0.025
625.39	0.025
625.59	0.025
625.79	0.025
625.99	0.025
626.19	0.025
626.39	0.025
626.59	0.025
626.79	0.025
626.99	0.025
627.19	0.025
627.40	0.025
627.60	0.025
627.80	0.025
628.00	0.025
628.20	0.025
628.40	0.025
628.60	0.025
628.80	0.024
629.00	0.024
629.20	0.024
629.40	0.024
629.60	0.024
629.80	0.024
630.00	0.024
630.20	0.024
630.41	0.024
630.61	0.024
630.81	0.024
631.01	0.024
631.21	0.024
631.41	0.024
631.61	0.024
631.81	0.024
632.01	0.024
632.21	0.024
632.41	0.024
632.61	0.024
632.81	0.024
633.01	0.024
633.21	0.024
633.41	0.024
633.61	0.024
633.81	0.024
634.01	0.024
634.21	0.024
634.41	0.024
634.61	0.024
634.81	0.024
635.01	0.024
635.22	0.024
635.42	0.024
635.62	0.024
635.82	0.024
636.02	0.024
636.22	0.024
636.42	0.024
636.62	0.024
636.82	0.024
637.02	0.024
637.22	0.025
637.42	0.025
637.62	0.025
637.82	0.025
638.02	0.025
638.22	0.024
638.42	0.025
638.62	0.025
638.82	0.025
639.02	0.025
639.22	0.024
639.42	0.024
639.62	0.024
639.82	0.024
640.02	0.024
640.22	0.024
640.42	0.025
640.62	0.024
640.82	0.024
641.02	0.024
641.22	0.024
641.42	0.025
641.61	0.025
641.81	0.025
642.01	0.025
642.21	0.025
642.41	0.025
642.61	0.025
642.81	0.025
643.01	0.025
643.21	0.025
643.41	0.025
643.61	0.025
643.81	0.025
644.01	0.024
644.21	0.024
644.41	0.024
644.61	0.024
644.81	0.024
645.01	0.024
645.21	0.024
645.41	0.024
645.61	0.024
645.81	0.024
646.01	0.024
646.21	0.024
646.40	0.025
646.60	0.025
646.80	0.025
647.00	0.025
647.20	0.025
647.40	0.024
647.60	0.025
647.80	0.025
648.00	0.025
648.20	0.025
648.40	0.025
648.60	0.025
648.80	0.025
649.00	0.025
649.20	0.025
649.39	0.025
649.59	0.025
649.79	0.025
649.99	0.024
650.19	0.024
650.39	0.024
650.59	0.024
650.79	0.024
650.99	0.024
651.19	0.024
651.39	0.024
651.58	0.024
651.78	0.024
651.98	0.024
652.18	0.024
652.38	0.024
652.58	0.024
652.78	0.024
652.98	0.024
653.18	0.024
653.38	0.024
653.57	0.025
653.77	0.025
653.97	0.025
654.17	0.025
654.37	0.024
654.57	0.024
654.77	0.024
654.97	0.024
655.16	0.024
655.36	0.024
655.56	0.024
655.76	0.023
655.96	0.023
656.16	0.023
656.36	0.023
656.56	0.023
656.75	0.023
656.95	0.023
657.15	0.023
657.35	0.024
657.55	0.024
657.75	0.024
657.95	0.024
658.14	0.024
658.34	0.024
658.54	0.024
658.74	0.024
658.94	0.024
659.14	0.024
659.34	0.024
659.53	0.024
659.73	0.024
659.93	0.024
660.13	0.023
660.33	0.023
660.53	0.023
660.72	0.023
660.92	0.024
661.12	0.023
661.32	0.023
661.52	0.023
661.72	0.023
661.91	0.023
662.11	0.023
662.31	0.023
662.51	0.023
662.71	0.023
662.90	0.023
663.10	0.023
663.30	0.023
663.50	0.023
663.70	0.023
663.90	0.023
664.09	0.023
664.29	0.023
664.49	0.023
664.69	0.023
664.89	0.023
665.08	0.023
665.28	0.023
665.48	0.023
665.68	0.023
665.88	0.023
666.07	0.023
666.27	0.023
666.47	0.023
666.67	0.023
666.87	0.023
667.06	0.023
667.26	0.024
667.46	0.023
667.66	0.023
667.85	0.023
668.05	0.023
668.25	0.024
668.45	0.023
668.65	0.023
668.84	0.024
669.04	0.023
669.24	0.023
669.44	0.023
669.63	0.023
669.83	0.023
670.03	0.023
670.23	0.023
670.42	0.023
670.62	0.023
670.82	0.023
671.02	0.023
671.22	0.023
671.41	0.023
671.61	0.023
671.81	0.023
672.01	0.023
672.20	0.023
672.40	0.023
672.60	0.023
672.80	0.023
672.99	0.023
673.19	0.023
673.39	0.023
673.58	0.024
673.78	0.024
673.98	0.024
674.18	0.024
674.37	0.024
674.57	0.024
674.77	0.024
674.97	0.023
675.16	0.023
675.36	0.023
675.56	0.023
675.75	0.023
675.95	0.023
676.15	0.023
676.35	0.023
676.54	0.023
676.74	0.023
676.94	0.023
677.13	0.023
677.33	0.023
677.53	0.023
677.73	0.023
677.92	0.023
678.12	0.023
678.32	0.023
678.51	0.023
678.71	0.023
678.91	0.023
679.11	0.023
679.30	0.023
679.50	0.023
679.70	0.023
679.89	0.023
680.09	0.023
680.29	0.023
680.48	0.024
680.68	0.023
680.88	0.024
681.07	0.023
681.27	0.023
681.47	0.024
681.66	0.024
681.86	0.024
682.06	0.024
682.25	0.024
682.45	0.024
682.65	0.023
682.84	0.023
683.04	0.023
683.24	0.023
683.43	0.023
683.63	0.023
683.83	0.023
684.02	0.023
684.22	0.023
684.42	0.023
684.61	0.023
684.81	0.023
685.01	0.023
685.20	0.023
685.40	0.023
685.60	0.023
685.79	0.024
685.99	0.023
686.19	0.024
686.38	0.023
686.58	0.023
686.77	0.023
686.97	0.023
687.17	0.023
687.36	0.023
687.56	0.023
687.76	0.023
687.95	0.023
688.15	0.023
688.34	0.022
688.54	0.023
688.74	0.023
688.93	0.023
689.13	0.023
689.33	0.023
689.52	0.023
689.72	0.023
689.91	0.023
690.11	0.023
690.31	0.022
690.50	0.022
690.70	0.022
690.89	0.022
691.09	0.023
691.29	0.023
691.48	0.022
691.68	0.022
691.87	0.023
692.07	0.023
692.27	0.023
692.46	0.023
692.66	0.023
692.85	0.023
693.05	0.023
693.25	0.023
693.44	0.022
693.64	0.023
693.83	0.023
694.03	0.023
694.22	0.023
694.42	0.023
694.62	0.023
694.81	0.023
695.01	0.023
695.20	0.023
695.40	0.023
695.59	0.023
695.79	0.023
695.99	0.022
696.18	0.022
696.38	0.022
696.57	0.022
696.77	0.022
696.96	0.022
697.16	0.022
697.36	0.022
697.55	0.022
697.75	0.022
697.94	0.022
698.14	0.022
698.33	0.022
698.53	0.023
698.72	0.023
698.92	0.023
699.11	0.023
699.31	0.023
699.51	0.023
699.70	0.023
699.90	0.023
700.09	0.023
700.29	0.023
700.48	0.024
700.68	0.023
700.87	0.023
701.07	0.023
701.26	0.023
701.46	0.023
701.65	0.023
701.85	0.023
702.04	0.023
702.24	0.023
702.43	0.022
702.63	0.022
702.82	0.022
703.02	0.022
703.21	0.022
703.41	0.021
703.60	0.021
703.80	0.021
703.99	0.022
704.19	0.022
704.38	0.022
704.58	0.022
704.77	0.022
704.97	0.022
705.16	0.022
705.36	0.022
705.55	0.022
705.75	0.022
705.94	0.022
706.14	0.022
706.33	0.022
706.53	0.022
706.72	0.022
706.92	0.022
707.11	0.022
707.31	0.022
707.50	0.022
707.70	0.022
707.89	0.022
708.09	0.023
708.28	0.023
708.48	0.022
708.67	0.022
708.86	0.022
709.06	0.022
709.25	0.022
709.45	0.022
709.64	0.022
709.84	0.022
710.03	0.022
710.23	0.022
710.42	0.022
710.62	0.022
710.81	0.022
711.00	0.022
711.20	0.022
711.39	0.022
711.59	0.022
711.78	0.022
711.98	0.022
712.17	0.022
712.37	0.022
712.56	0.022
712.75	0.022
712.95	0.022
713.14	0.022
713.34	0.022
713.53	0.022
713.73	0.022
713.92	0.022
714.11	0.021
714.31	0.021
714.50	0.021
714.70	0.021
714.89	0.021
715.08	0.021
715.28	0.021
715.47	0.021
715.67	0.021
715.86	0.021
716.06	0.021
716.25	0.021
716.44	0.021
716.64	0.020
716.83	0.020
717.03	0.019
717.22	0.020
717.41	0.019
717.61	0.019
717.80	0.019
717.99	0.019
718.19	0.019
718.38	0.019
718.58	0.019
718.77	0.019
718.96	0.019
719.16	0.019
719.35	0.019
719.55	0.019
719.74	0.020
719.93	0.020
720.13	0.020
720.32	0.020
720.51	0.020
720.71	0.020
720.90	0.020
721.10	0.020
721.29	0.020
721.48	0.020
721.68	0.019
721.87	0.019
722.06	0.019
722.26	0.018
722.45	0.018
722.64	0.018
722.84	0.018
723.03	0.018
723.22	0.018
723.42	0.018
723.61	0.018
723.80	0.019
724.00	0.018
724.19	0.018
724.38	0.018
724.58	0.018
724.77	0.018
724.96	0.018
725.16	0.017
725.35	0.017
725.54	0.017
725.74	0.017
725.93	0.017
726.12	0.017
726.32	0.017
726.51	0.017
726.70	0.017
726.90	0.017
727.09	0.017
727.28	0.017
727.48	0.017
727.67	0.017
727.86	0.017
728.06	0.017
728.25	0.017
728.44	0.017
728.64	0.017
728.83	0.017
729.02	0.017
729.21	0.017
729.41	0.017
729.60	0.017
729.79	0.016
729.99	0.016
730.18	0.016
730.37	0.015
730.56	0.015
730.76	0.015
730.95	0.015
731.14	0.015
731.34	0.015
731.53	0.015
731.72	0.015
731.91	0.015
732.11	0.015
732.30	0.016
732.49	0.016
732.69	0.016
732.88	0.016
733.07	0.016
733.26	0.016
733.46	0.015
733.65	0.015
733.84	0.015
734.03	0.015
734.23	0.015
734.42	0.014
734.61	0.014
734.80	0.015
735.00	0.014
735.19	0.014
735.38	0.014
735.57	0.014
735.77	0.014
735.96	0.014
736.15	0.014
736.34	0.014
736.54	0.014
736.73	0.014
736.92	0.014
737.11	0.014
737.31	0.014
737.50	0.014
737.69	0.014
737.88	0.014
738.07	0.014
738.27	0.014
738.46	0.014
738.65	0.014
738.84	0.014
739.04	0.014
739.23	0.014
739.42	0.014
739.61	0.014
739.80	0.014
740.00	0.014
740.19	0.013
740.38	0.013
740.57	0.013
740.76	0.013
740.96	0.013
741.15	0.014
741.34	0.014
741.53	0.014
741.72	0.014
741.92	0.013
742.11	0.014
742.30	0.014
742.49	0.014
742.68	0.014
742.88	0.014
743.07	0.014
743.26	0.014
743.45	0.014
743.64	0.014
743.84	0.014
744.03	0.015
744.22	0.015
744.41	0.015
744.60	0.015
744.79	0.015
744.99	0.015
745.18	0.015
745.37	0.015
745.56	0.015
745.75	0.015
745.94	0.015
746.14	0.015
746.33	0.015
746.52	0.015
746.71	0.014
746.90	0.014
747.09	0.014
747.28	0.015
747.48	0.015
747.67	0.015
747.86	0.015
748.05	0.015
748.24	0.015
748.43	0.015
748.62	0.015
748.82	0.016
749.01	0.016
749.20	0.015
749.39	0.015
749.58	0.016
749.77	0.015
749.96	0.015
750.16	0.015
750.35	0.015
750.54	0.016
750.73	0.016
750.92	0.016
751.11	0.016
751.30	0.016
751.49	0.016
751.68	0.016
751.88	0.016
752.07	0.016
752.26	0.016
752.45	0.016
752.64	0.016
752.83	0.016
753.02	0.016
753.21	0.016
753.40	0.016
753.60	0.016
753.79	0.016
753.98	0.016
754.17	0.016
754.36	0.016
754.55	0.017
754.74	0.017
754.93	0.017
755.12	0.017
755.31	0.016
755.50	0.016
755.70	0.016
755.89	0.016
756.08	0.017
756.27	0.017
756.46	0.017
756.65	0.017
756.84	0.017
757.03	0.018
757.22	0.017
757.41	0.018
757.60	0.018
757.79	0.018
757.98	0.019
758.17	0.018
758.36	0.018
758.56	0.018
758.75	0.018
758.94	0.018
759.13	0.018
759.32	0.018
759.51	0.018
759.70	0.017
759.89	0.017
760.08	0.017
760.27	0.017
760.46	0.017
760.65	0.016
760.84	0.017
761.03	0.017
761.22	0.017
761.41	0.017
761.60	0.017
761.79	0.017
761.98	0.017
762.17	0.017
762.36	0.018
762.55	0.018
762.74	0.018
762.93	0.018
763.12	0.017
763.31	0.017
763.50	0.017
763.69	0.017
763.88	0.017
764.07	0.017
764.26	0.017
764.45	0.017
764.64	0.017
764.83	0.017
765.02	0.017
765.21	0.017
765.40	0.017
765.59	0.017
765.78	0.017
765.97	0.017
766.16	0.016
766.35	0.016
766.54	0.016
766.73	0.017
766.92	0.016
767.11	0.016
767.30	0.016
767.49	0.016
767.68	0.016
767.87	0.016
768.06	0.016
768.25	0.016
768.44	0.016
768.63	0.016
768.82	0.015
769.01	0.015
769.20	0.015
769.39	0.015
769.58	0.015
769.77	0.015
769.96	0.015
770.15	0.015
770.34	0.015
770.53	0.015
770.72	0.014
770.91	0.014
771.10	0.015
771.29	0.015
771.47	0.014
771.66	0.015
771.85	0.015
772.04	0.014
772.23	0.014
772.42	0.014
772.61	0.014
772.80	0.015
772.99	0.014
773.18	0.014
773.37	0.014
773.56	0.015
773.75	0.014
773.94	0.014
774.13	0.014
774.31	0.014
774.50	0.014
774.69	0.014
774.88	0.014
775.07	0.014
775.26	0.015
775.45	0.015
775.64	0.014
775.83	0.014
776.02	0.014
776.21	0.014
776.40	0.014
776.58	0.014
776.77	0.014
776.96	0.013
777.15	0.014
777.34	0.013
777.53	0.013
777.72	0.013
777.91	0.013
778.10	0.013
778.28	0.013
778.47	0.013
778.66	0.013
778.85	0.013
779.04	0.013
779.23	0.013
779.42	0.013
779.61	0.013
779.79	0.013
779.98	0.013
780.17	0.013
780.36	0.013
780.55	0.013
780.74	0.013
780.93	0.014
781.12	0.014
781.30	0.014
781.49	0.013
781.68	0.013
781.87	0.013
782.06	0.013
782.25	0.013
782.44	0.013
782.62	0.013
782.81	0.013
783.00	0.013
783.19	0.013
783.38	0.013
783.57	0.013
783.75	0.013
783.94	0.014
784.13	0.014
784.32	0.013
784.51	0.014
784.70	0.013
784.88	0.014
785.07	0.013
785.26	0.013
785.45	0.013
785.64	0.013
785.83	0.014
786.01	0.014
786.20	0.014
786.39	0.014
786.58	0.014
786.77	0.014
786.95	0.014
787.14	0.014
787.33	0.014
787.52	0.014
787.71	0.014
787.90	0.014
788.08	0.014
788.27	0.014
788.46	0.014
788.65	0.014
788.84	0.014
789.02	0.014
789.21	0.014
789.40	0.014
789.59	0.014
789.77	0.014
789.96	0.014
790.15	0.015
790.34	0.015
790.53	0.015
790.71	0.015
790.90	0.014
791.09	0.014
791.28	0.014
791.46	0.014
791.65	0.014
791.84	0.014
792.03	0.014
792.22	0.014
792.40	0.014
792.59	0.014
792.78	0.014
792.97	0.015
793.15	0.015
793.34	0.015
793.53	0.015
793.72	0.015
793.90	0.015
794.09	0.015
794.28	0.015
794.47	0.015
794.65	0.015
794.84	0.015
795.03	0.015
795.22	0.015
795.40	0.016
795.59	0.016
795.78	0.016
795.97	0.016
796.15	0.016
796.34	0.016
796.53	0.016
796.71	0.016
796.90	0.016
797.09	0.016
797.28	0.016
797.46	0.016
797.65	0.016
797.84	0.016
798.02	0.016
798.21	0.016
798.40	0.017
798.59	0.017
798.77	0.016
798.96	0.016
799.15	0.016
799.33	0.016
799.52	0.016
799.71	0.016
799.90	0.016
800.08	0.016
800.27	0.016
800.46	0.016
800.64	0.016
800.83	0.016
801.02	0.016
801.20	0.016
801.39	0.016
801.58	0.016
801.76	0.016
801.95	0.016
802.14	0.016
802.32	0.016
802.51	0.016
802.70	0.016
802.88	0.016
803.07	0.016
803.26	0.016
803.44	0.016
803.63	0.016
803.82	0.016
804.00	0.016
804.19	0.016
804.38	0.016
804.56	0.016
804.75	0.016
804.94	0.016
805.12	0.016
805.31	0.016
805.50	0.016
805.68	0.016
805.87	0.016
806.06	0.017
806.24	0.017
806.43	0.017
806.62	0.017
806.80	0.017
806.99	0.017
807.17	0.017
807.36	0.017
807.55	0.017
807.73	0.016
807.92	0.016
808.11	0.017
808.29	0.016
808.48	0.016
808.66	0.016
808.85	0.016
809.04	0.017
809.22	0.017
809.41	0.017
809.59	0.017
809.78	0.017
809.97	0.017
810.15	0.016
810.34	0.017
810.53	0.017
810.71	0.016
810.90	0.016
811.08	0.016
811.27	0.017
811.45	0.016
811.64	0.016
811.83	0.016
812.01	0.016
812.20	0.017
812.38	0.017
812.57	0.016
812.76	0.016
812.94	0.016
813.13	0.016
813.31	0.016
813.50	0.016
813.68	0.016
813.87	0.016
814.06	0.016
814.24	0.016
814.43	0.016
814.61	0.016
814.80	0.017
814.98	0.016
815.17	0.017
815.36	0.017
815.54	0.017
815.73	0.016
815.91	0.017
816.10	0.016
816.28	0.016
816.47	0.016
816.65	0.016
816.84	0.016
817.03	0.016
817.21	0.016
817.40	0.016
817.58	0.016
817.77	0.016
817.95	0.015
818.14	0.016
818.32	0.016
818.51	0.016
818.69	0.016
818.88	0.016
819.06	0.016
819.25	0.016
819.43	0.016
819.62	0.016
819.80	0.016
819.99	0.016
820.18	0.016
820.36	0.016
820.55	0.016
820.73	0.016
820.92	0.016
821.10	0.016
821.29	0.016
821.47	0.016
821.66	0.016
821.84	0.016
822.03	0.016
822.21	0.016
822.40	0.016
822.58	0.016
822.77	0.016
822.95	0.016
823.14	0.016
823.32	0.016
823.50	0.016
823.69	0.016
823.87	0.016
824.06	0.015
824.24	0.015
824.43	0.015
824.61	0.015
824.80	0.015
824.98	0.015
825.17	0.015
825.35	0.015
825.54	0.015
825.72	0.015
825.91	0.015
826.09	0.015
826.28	0.015
826.46	0.015
826.64	0.015
826.83	0.014
827.01	0.015
827.20	0.015
827.38	0.015
827.57	0.014
827.75	0.014
827.94	0.014
828.12	0.014
828.31	0.014
828.49	0.013
828.67	0.013
828.86	0.013
829.04	0.012
829.23	0.012
829.41	0.012
829.60	0.012
829.78	0.012
829.96	0.012
830.15	0.012
830.33	0.012
830.52	0.012
830.70	0.012
830.88	0.012
831.07	0.012
831.25	0.012
831.44	0.011
831.62	0.011
831.81	0.011
831.99	0.011
832.17	0.011
832.36	0.011
832.54	0.011
832.73	0.011
832.91	0.011
833.09	0.011
833.28	0.011
833.46	0.011
833.65	0.011
833.83	0.010
834.01	0.010
834.20	0.011
834.38	0.011
834.56	0.011
834.75	0.011
834.93	0.011
835.12	0.011
835.30	0.011
835.48	0.011
835.67	0.010
835.85	0.010
836.03	0.010
836.22	0.010
836.40	0.010
836.59	0.010
836.77	0.010
836.95	0.010
837.14	0.010
837.32	0.010
837.50	0.010
837.69	0.010
837.87	0.010
838.05	0.011
838.24	0.011
838.42	0.011
838.60	0.011
838.79	0.011
838.97	0.011
839.15	0.011
839.34	0.011
839.52	0.010
839.70	0.010
839.89	0.010
840.07	0.010
840.25	0.010
840.44	0.010
840.62	0.010
840.80	0.010
840.99	0.010
841.17	0.009
841.35	0.009
841.54	0.009
841.72	0.009
841.90	0.009
842.09	0.009
842.27	0.008
842.45	0.008
842.64	0.008
842.82	0.008
843.00	0.009
843.19	0.009
843.37	0.009
843.55	0.008
843.73	0.008
843.92	0.009
844.10	0.009
844.28	0.009
844.47	0.009
844.65	0.009
844.83	0.009
845.01	0.009
845.20	0.009
845.38	0.009
845.56	0.009
845.75	0.009
845.93	0.009
846.11	0.009
846.29	0.009
846.48	0.009
846.66	0.009
846.84	0.009
847.02	0.009
847.21	0.009
847.39	0.009
847.57	0.009
847.76	0.009
847.94	0.009
848.12	0.009
848.30	0.009
848.49	0.009
848.67	0.009
848.85	0.009
849.03	0.009
849.22	0.009
849.40	0.009
849.58	0.009
849.76	0.009
849.95	0.009
850.13	0.009
850.31	0.009
850.49	0.009
850.67	0.009
850.86	0.009
851.04	0.009
851.22	0.009
851.40	0.009
851.59	0.009
851.77	0.009
851.95	0.009
852.13	0.008
852.31	0.008
852.50	0.008
852.68	0.008
852.86	0.008
853.04	0.008
853.23	0.008
853.41	0.008
853.59	0.008
853.77	0.008
853.95	0.008
854.14	0.008
854.32	0.008
854.50	0.008
854.68	0.008
854.86	0.008
855.04	0.008
855.23	0.008
855.41	0.008
855.59	0.008
855.77	0.008
855.95	0.008
856.14	0.008
856.32	0.007
856.50	0.007
856.68	0.008
856.86	0.007
857.04	0.008
857.23	0.007
857.41	0.007
857.59	0.007
857.77	0.008
857.95	0.008
858.13	0.008
858.32	0.008
858.50	0.008
858.68	0.008
858.86	0.008
859.04	0.008
859.22	0.007
859.41	0.008
859.59	0.007
859.77	0.007
859.95	0.007
860.13	0.007
860.31	0.007
860.49	0.007
860.68	0.007
860.86	0.007
861.04	0.007
861.22	0.007
861.40	0.007
861.58	0.007
861.76	0.007
861.94	0.007
862.13	0.007
862.31	0.007
862.49	0.007
862.67	0.007
862.85	0.007
863.03	0.007
863.21	0.007
863.39	0.007
863.57	0.007
863.76	0.007
863.94	0.007
864.12	0.007
864.30	0.007
864.48	0.006
864.66	0.007
864.84	0.006
865.02	0.007
865.20	0.007
865.38	0.007
865.57	0.007
865.75	0.007
865.93	0.007
866.11	0.007
866.29	0.007
866.47	0.007
866.65	0.007
866.83	0.008
867.01	0.008
867.19	0.008
867.37	0.008
867.55	0.008
867.73	0.008
867.92	0.008
868.10	0.008
868.28	0.008
868.46	0.009
868.64	0.009
868.82	0.009
869.00	0.009
869.18	0.009
869.36	0.009
869.54	0.009
869.72	0.009
869.90	0.009
870.08	0.009
870.26	0.010
870.44	0.010
870.62	0.010
870.80	0.010
870.98	0.010
871.16	0.010
871.34	0.010
871.53	0.010
871.71	0.010
871.89	0.010
872.07	0.010
872.25	0.011
872.43	0.011
872.61	0.011
872.79	0.011
872.97	0.011
873.15	0.011
873.33	0.011
873.51	0.011
873.69	0.011
873.87	0.011
874.05	0.011
874.23	0.011
874.41	0.011
874.59	0.011
874.77	0.011
874.95	0.011
875.13	0.011
875.31	0.012
875.49	0.012
875.67	0.012
875.85	0.011
876.03	0.011
876.21	0.011
876.39	0.011
876.57	0.011
876.75	0.011
876.93	0.011
877.11	0.011
877.29	0.010
877.47	0.011
877.65	0.011
877.82	0.010
878.00	0.010
878.18	0.010
878.36	0.011
878.54	0.010
878.72	0.010
878.90	0.010
879.08	0.010
879.26	0.010
879.44	0.010
879.62	0.010
879.80	0.010
879.98	0.010
880.16	0.010
880.34	0.010
880.52	0.010
880.70	0.010
880.88	0.010
881.06	0.009
881.24	0.009
881.42	0.009
881.59	0.009
881.77	0.009
881.95	0.009
882.13	0.009
882.31	0.009
882.49	0.009
882.67	0.009
882.85	0.009
883.03	0.009
883.21	0.010
883.39	0.009
883.57	0.010
883.75	0.010
883.92	0.010
884.10	0.010
884.28	0.010
884.46	0.010
884.64	0.010
884.82	0.010
885.00	0.010
885.18	0.010
885.36	0.010
885.54	0.009
885.71	0.009
885.89	0.009
886.07	0.009
886.25	0.009
886.43	0.009
886.61	0.009
886.79	0.009
886.97	0.009
887.15	0.009
887.32	0.009
887.50	0.009
887.68	0.009
887.86	0.009
888.04	0.009
888.22	0.009
888.40	0.009
888.57	0.009
888.75	0.008
888.93	0.008
889.11	0.008
889.29	0.008
889.47	0.009
889.65	0.009
889.82	0.009
890.00	0.009
890.18	0.010
890.36	0.010
890.54	0.010
890.72	0.010
890.90	0.010
891.07	0.010
891.25	0.011
891.43	0.011
891.61	0.011
891.79	0.011
891.97	0.011
892.14	0.011
892.32	0.011
892.50	0.011
892.68	0.011
892.86	0.011
893.03	0.011
893.21	0.012
893.39	0.012
893.57	0.012
893.75	0.012
893.93	0.012
894.10	0.012
894.28	0.013
894.46	0.013
894.64	0.013
894.82	0.013
894.99	0.013
895.17	0.013
895.35	0.013
895.53	0.013
895.71	0.012
895.88	0.012
896.06	0.012
896.24	0.012
896.42	0.012
896.59	0.012
896.77	0.012
896.95	0.012
897.13	0.012
897.31	0.011
897.48	0.012
897.66	0.012
897.84	0.012
898.02	0.012
898.19	0.012
898.37	0.012
898.55	0.012
898.73	0.012
898.91	0.012
899.08	0.012
899.26	0.012
899.44	0.012
899.62	0.012
899.79	0.012
899.97	0.012
900.15	0.012
900.33	0.012
900.50	0.012
900.68	0.013
900.86	0.013
901.04	0.013
901.21	0.013
901.39	0.013
901.57	0.013
901.74	0.013
901.92	0.013
902.10	0.013
902.28	0.013
902.45	0.013
902.63	0.012
902.81	0.013
902.99	0.013
903.16	0.013
903.34	0.013
903.52	0.013
903.69	0.014
903.87	0.014
904.05	0.014
904.22	0.014
904.40	0.014
904.58	0.014
904.76	0.015
904.93	0.015
905.11	0.015
905.29	0.015
905.46	0.016
905.64	0.016
905.82	0.016
905.99	0.015
906.17	0.016
906.35	0.016
906.53	0.016
906.70	0.016
906.88	0.017
907.06	0.017
907.23	0.017
907.41	0.017
907.59	0.018
907.76	0.018
907.94	0.019
908.12	0.019
908.29	0.019
908.47	0.019
908.65	0.020
908.82	0.021
909.00	0.021
909.18	0.021
909.35	0.021
909.53	0.022
909.71	0.022
909.88	0.023
910.06	0.023
910.23	0.023
910.41	0.024
910.59	0.024
910.76	0.024
910.94	0.024
911.12	0.025
911.29	0.025
911.47	0.025
911.65	0.025
911.82	0.025
912.00	0.025
912.17	0.026
912.35	0.026
912.53	0.027
912.70	0.027
912.88	0.027
913.06	0.027
913.23	0.027
913.41	0.027
913.58	0.028
913.76	0.028
913.94	0.028
914.11	0.029
914.29	0.028
914.46	0.028
914.64	0.029
914.82	0.029
914.99	0.029
915.17	0.030
915.34	0.030
915.52	0.030
915.70	0.031
915.87	0.031
916.05	0.031
916.22	0.031
916.40	0.032
916.57	0.032
916.75	0.032
916.93	0.033
917.10	0.033
917.28	0.033
917.45	0.034
917.63	0.034
917.80	0.034
917.98	0.035
918.16	0.036
918.33	0.036
918.51	0.036
918.68	0.036
918.86	0.037
919.03	0.037
919.21	0.037
919.39	0.037
919.56	0.038
919.74	0.038
919.91	0.038
920.09	0.039
920.26	0.039
920.44	0.039
920.61	0.040
920.79	0.040
920.96	0.040
921.14	0.041
921.31	0.041
921.49	0.041
921.67	0.041
921.84	0.042
922.02	0.042
922.19	0.042
922.37	0.042
922.54	0.043
922.72	0.043
922.89	0.043
923.07	0.044
923.24	0.044
923.42	0.045
923.59	0.045
923.77	0.045
923.94	0.045
924.12	0.045
924.29	0.046
924.47	0.046
924.64	0.046
924.82	0.046
924.99	0.046
925.17	0.047
925.34	0.047
925.52	0.047
925.69	0.047
925.87	0.048
926.04	0.047
926.22	0.047
926.39	0.047
926.57	0.048
926.74	0.048
926.91	0.048
927.09	0.048
927.26	0.048
927.44	0.048
927.61	0.047
927.79	0.047
927.96	0.047
928.14	0.047
928.31	0.047
928.49	0.047
928.66	0.047
928.84	0.046
929.01	0.046
929.18	0.045
929.36	0.045
929.53	0.045
929.71	0.045
929.88	0.044
930.06	0.043
930.23	0.043
930.41	0.042
930.58	0.042
930.75	0.041
930.93	0.041
931.10	0.040
931.28	0.039
931.45	0.039
931.63	0.038
931.80	0.037
931.97	0.036
932.15	0.036
932.32	0.035
932.50	0.034
932.67	0.034
932.84	0.033
933.02	0.031
933.19	0.031
933.37	0.030
933.54	0.029
933.71	0.028
933.89	0.027
934.06	0.025
934.24	0.024
934.41	0.023
934.58	0.022
934.76	0.021
934.93	0.020
935.11	0.019
935.28	0.018
935.45	0.016
935.63	0.015
935.80	0.014
935.98	0.013
936.15	0.011
936.32	0.010
936.50	0.009
936.67	0.008
936.84	0.006
937.02	0.005
937.19	0.004
937.36	0.002
937.54	0.001
937.71	-0.001
937.89	-0.002
938.06	-0.003
938.23	-0.005
938.41	-0.006
938.58	-0.007
938.75	-0.009
938.93	-0.010
939.10	-0.011
939.27	-0.013
939.45	-0.014
939.62	-0.015
939.79	-0.016
939.97	-0.018
940.14	-0.019
940.31	-0.020
940.49	-0.022
940.66	-0.023
940.83	-0.025
941.01	-0.026
941.18	-0.028
941.35	-0.029
941.53	-0.030
941.70	-0.032
941.87	-0.033
942.05	-0.034
942.22	-0.036
942.39	-0.037
942.57	-0.038
942.74	-0.039
942.91	-0.041
943.08	-0.042
943.26	-0.044
943.43	-0.045
943.60	-0.046
943.78	-0.047
943.95	-0.049
944.12	-0.050
944.29	-0.051
944.47	-0.052
944.64	-0.054
944.81	-0.055
944.99	-0.056
945.16	-0.057
945.33	-0.059
945.50	-0.060
945.68	-0.061
945.85	-0.063
946.02	-0.064
946.20	-0.065
946.37	-0.066
946.54	-0.067
946.71	-0.068
946.89	-0.069
947.06	-0.070
947.23	-0.071
947.40	-0.073
947.58	-0.074
947.75	-0.075
947.92	-0.077
948.09	-0.078
948.27	-0.079
948.44	-0.081
948.61	-0.082
948.78	-0.084
948.96	-0.085
949.13	-0.086
949.30	-0.088
949.47	-0.089
949.65	-0.090
949.82	-0.091
949.99	-0.093
950.16	-0.094
950.33	-0.095
950.51	-0.097
950.68	-0.098
950.85	-0.100
951.02	-0.102
951.20	-0.103
951.37	-0.105
951.54	-0.106
951.71	-0.108
951.88	-0.109
952.06	-0.111
952.23	-0.112
952.40	-0.114
952.57	-0.115
952.74	-0.116
952.92	-0.118
953.09	-0.119
953.26	-0.120
953.43	-0.121
953.60	-0.122
953.77	-0.123
953.95	-0.125
954.12	-0.126
954.29	-0.127
954.46	-0.129
954.63	-0.130
954.81	-0.132
954.98	-0.133
955.15	-0.134
955.32	-0.136
955.49	-0.137
955.66	-0.139
955.84	-0.140
956.01	-0.142
956.18	-0.143
956.35	-0.144
956.52	-0.145
956.69	-0.146
956.87	-0.147
957.04	-0.149
957.21	-0.150
957.38	-0.151
957.55	-0.152
957.72	-0.153
957.89	-0.154
958.07	-0.154
958.24	-0.155
958.41	-0.157
958.58	-0.158
958.75	-0.158
958.92	-0.159
959.09	-0.160
959.26	-0.160
959.44	-0.161
959.61	-0.163
959.78	-0.163
959.95	-0.164
960.12	-0.165
960.29	-0.165
960.46	-0.165
960.63	-0.166
960.81	-0.166
960.98	-0.167
961.15	-0.168
961.32	-0.168
961.49	-0.168
961.66	-0.168
961.83	-0.169
962.00	-0.170
962.17	-0.170
962.34	-0.170
962.52	-0.171
962.69	-0.171
962.86	-0.172
963.03	-0.171
963.20	-0.172
963.37	-0.173
963.54	-0.173
963.71	-0.173
963.88	-0.174
964.05	-0.174
964.22	-0.174
964.39	-0.175
964.56	-0.175
964.74	-0.175
964.91	-0.175
965.08	-0.175
965.25	-0.175
965.42	-0.175
965.59	-0.176
965.76	-0.175
965.93	-0.176
966.10	-0.176
966.27	-0.176
966.44	-0.176
966.61	-0.176
966.78	-0.176
966.95	-0.177
967.12	-0.177
967.29	-0.177
967.46	-0.177
967.63	-0.177
967.80	-0.177
967.97	-0.177
968.14	-0.178
968.32	-0.178
968.49	-0.178
968.66	-0.178
968.83	-0.178
969.00	-0.178
969.17	-0.178
969.34	-0.179
969.51	-0.179
969.68	-0.179
969.85	-0.179
970.02	-0.179
970.19	-0.179
970.36	-0.180
970.53	-0.180
970.70	-0.180
970.87	-0.180
971.04	-0.181
971.21	-0.181
971.38	-0.181
971.55	-0.181
971.72	-0.181
971.89	-0.181
972.06	-0.182
972.23	-0.181
972.40	-0.181
972.57	-0.182
972.74	-0.181
972.91	-0.181
973.07	-0.181
973.24	-0.182
973.41	-0.182
973.58	-0.182
973.75	-0.182
973.92	-0.182
974.09	-0.183
974.26	-0.183
974.43	-0.183
974.60	-0.183
974.77	-0.183
974.94	-0.183
975.11	-0.183
975.28	-0.183
975.45	-0.183
975.62	-0.182
975.79	-0.183
975.96	-0.183
976.13	-0.182
976.30	-0.183
976.47	-0.183
976.64	-0.184
976.80	-0.183
976.97	-0.184
977.14	-0.183
977.31	-0.183
977.48	-0.183
977.65	-0.183
977.82	-0.183
977.99	-0.183
978.16	-0.183
978.33	-0.182
978.50	-0.182
978.67	-0.182
978.83	-0.182
979.00	-0.182
979.17	-0.181
979.34	-0.181
979.51	-0.181
979.68	-0.181
979.85	-0.180
980.02	-0.180
980.19	-0.180
980.36	-0.180
980.52	-0.180
980.69	-0.180
980.86	-0.180
981.03	-0.180
981.20	-0.180
981.37	-0.179
981.54	-0.179
981.71	-0.179
981.88	-0.178
982.04	-0.177
982.21	-0.177
982.38	-0.177
982.55	-0.177
982.72	-0.177
982.89	-0.177
983.06	-0.176
983.22	-0.176
983.39	-0.176
983.56	-0.176
983.73	-0.176
983.90	-0.177
984.07	-0.177
984.24	-0.176
984.40	-0.176
984.57	-0.176
984.74	-0.176
984.91	-0.175
985.08	-0.175
985.25	-0.174
985.41	-0.174
985.58	-0.174
985.75	-0.174
985.92	-0.173
986.09	-0.172
986.26	-0.172
986.42	-0.172
986.59	-0.172
986.76	-0.172
986.93	-0.172
987.10	-0.173
987.27	-0.172
987.43	-0.171
987.60	-0.170
987.77	-0.169
987.94	-0.169
988.11	-0.168
988.27	-0.168
988.44	-0.168
988.61	-0.167
988.78	-0.166
988.95	-0.165
989.11	-0.165
989.28	-0.164
989.45	-0.164
989.62	-0.164
989.79	-0.164
989.95	-0.164
990.12	-0.163
990.29	-0.163
990.46	-0.163
990.62	-0.163
990.79	-0.163
990.96	-0.163
991.13	-0.162
991.30	-0.162
991.46	-0.161
991.63	-0.160
991.80	-0.160
991.97	-0.159
992.13	-0.159
992.30	-0.159
992.47	-0.158
992.64	-0.159
992.80	-0.159
992.97	-0.158
993.14	-0.158
993.31	-0.158
993.47	-0.158
993.64	-0.157
993.81	-0.158
993.98	-0.157
994.14	-0.157
994.31	-0.156
994.48	-0.156
994.64	-0.155
994.81	-0.155
994.98	-0.154
995.15	-0.154
995.31	-0.152
995.48	-0.152
995.65	-0.151
995.82	-0.150
995.98	-0.150
996.15	-0.149
996.32	-0.149
996.48	-0.149
996.65	-0.148
996.82	-0.148
996.99	-0.148
997.15	-0.147
997.32	-0.147
997.49	-0.147
997.65	-0.146
997.82	-0.146
997.99	-0.145
998.15	-0.145
998.32	-0.144
998.49	-0.144
998.65	-0.144
998.82	-0.143
998.99	-0.143
999.15	-0.142
999.32	-0.141
999.49	-0.141
999.65	-0.140
999.82	-0.140
999.99	-0.139
1000.15	-0.139
1000.32	-0.139
1000.49	-0.138
1000.65	-0.138
1000.82	-0.138
1000.99	-0.137
1001.15	-0.137
1001.32	-0.136
1001.49	-0.136
1001.65	-0.136
1001.82	-0.136
1001.99	-0.135
1002.15	-0.135
1002.32	-0.134
1002.49	-0.133
1002.65	-0.133
1002.82	-0.132
1002.99	-0.132
1003.15	-0.132
1003.32	-0.130
1003.48	-0.130
1003.65	-0.129
1003.82	-0.129
1003.98	-0.128
1004.15	-0.127
1004.32	-0.126
1004.48	-0.126
1004.65	-0.126
1004.81	-0.125
1004.98	-0.124
1005.15	-0.124
1005.31	-0.123
1005.48	-0.123
1005.64	-0.122
1005.81	-0.122
1005.98	-0.122
1006.14	-0.122
1006.31	-0.120
1006.47	-0.120
1006.64	-0.120
1006.81	-0.119
1006.97	-0.119
1007.14	-0.119
1007.30	-0.118
1007.47	-0.118
1007.63	-0.117
1007.80	-0.117
1007.97	-0.117
1008.13	-0.116
1008.30	-0.116
1008.46	-0.115
1008.63	-0.115
1008.79	-0.115
1008.96	-0.114
1009.13	-0.113
1009.29	-0.112
1009.46	-0.111
1009.62	-0.111
1009.79	-0.110
1009.95	-0.110
1010.12	-0.109
1010.28	-0.108
1010.45	-0.108
1010.62	-0.107
1010.78	-0.107
1010.95	-0.107
1011.11	-0.106
1011.28	-0.106
1011.44	-0.105
1011.61	-0.105
1011.77	-0.104
1011.94	-0.104
1012.10	-0.103
1012.27	-0.102
1012.43	-0.102
1012.60	-0.101
1012.76	-0.101
1012.93	-0.100
1013.10	-0.099
1013.26	-0.098
1013.43	-0.097
1013.59	-0.097
1013.76	-0.096
1013.92	-0.095
1014.09	-0.095
1014.25	-0.094
1014.42	-0.093
1014.58	-0.092
1014.75	-0.091
1014.91	-0.091
1015.08	-0.090
1015.24	-0.089
1015.41	-0.089
1015.57	-0.088
1015.73	-0.089
1015.90	-0.088
1016.06	-0.088
1016.23	-0.088
1016.39	-0.088
1016.56	-0.088
1016.72	-0.088
1016.89	-0.087
1017.05	-0.087
1017.22	-0.087
1017.38	-0.086
1017.55	-0.085
1017.71	-0.084
1017.88	-0.083
1018.04	-0.083
1018.21	-0.082
1018.37	-0.081
1018.53	-0.080
1018.70	-0.080
1018.86	-0.080
1019.03	-0.081
1019.19	-0.081
1019.36	-0.080
1019.52	-0.080
1019.69	-0.080
1019.85	-0.080
1020.01	-0.079
1020.18	-0.080
1020.34	-0.080
1020.51	-0.079
1020.67	-0.080
1020.84	-0.078
1021.00	-0.078
1021.16	-0.077
1021.33	-0.076
1021.49	-0.075
1021.66	-0.075
1021.82	-0.075
1021.98	-0.073
1022.15	-0.074
1022.31	-0.073
1022.48	-0.073
1022.64	-0.072
1022.80	-0.072
1022.97	-0.072
1023.13	-0.072
1023.30	-0.072
1023.46	-0.072
1023.62	-0.071
1023.79	-0.072
1023.95	-0.070
1024.12	-0.069
1024.28	-0.069
1024.44	-0.069
1024.61	-0.068
1024.77	-0.068
1024.93	-0.068
1025.10	-0.067
1025.26	-0.065
1025.43	-0.065
1025.59	-0.065
1025.75	-0.065
1025.92	-0.065
1026.08	-0.065
1026.24	-0.064
1026.41	-0.064
1026.57	-0.063
1026.73	-0.063
1026.90	-0.063
1027.06	-0.063
1027.23	-0.062
1027.39	-0.061
1027.55	-0.061
1027.72	-0.060
1027.88	-0.060
1028.04	-0.060
1028.21	-0.058
1028.37	-0.057
1028.53	-0.056
1028.70	-0.055
1028.86	-0.055
1029.02	-0.054
1029.19	-0.055
1029.35	-0.054
1029.51	-0.053
1029.67	-0.053
1029.84	-0.052
1030.00	-0.053
1030.16	-0.051
1030.33	-0.051
1030.49	-0.052
1030.65	-0.052
1030.82	-0.052
1030.98	-0.052
1031.14	-0.051
1031.31	-0.051
1031.47	-0.052
1031.63	-0.051
1031.79	-0.051
1031.96	-0.052
1032.12	-0.051
1032.28	-0.050
1032.45	-0.049
1032.61	-0.049
1032.77	-0.047
1032.93	-0.047
1033.10	-0.045
1033.26	-0.043
1033.42	-0.044
1033.58	-0.042
1033.75	-0.040
1033.91	-0.039
1034.07	-0.039
1034.24	-0.038
1034.40	-0.037
1034.56	-0.037
1034.72	-0.037
1034.89	-0.038
1035.05	-0.038
1035.21	-0.037
1035.37	-0.037
1035.54	-0.037
1035.70	-0.036
1035.86	-0.036
1036.02	-0.036
1036.19	-0.034
1036.35	-0.035
1036.51	-0.034
1036.67	-0.035
1036.83	-0.035
1037.00	-0.034
1037.16	-0.035
1037.32	-0.035
1037.48	-0.036
1037.65	-0.035
1037.81	-0.035
1037.97	-0.034
1038.13	-0.034
1038.29	-0.033
1038.46	-0.032
1038.62	-0.031
1038.78	-0.031
1038.94	-0.031
1039.10	-0.031
1039.27	-0.032
1039.43	-0.032
1039.59	-0.031
1039.75	-0.033
1039.91	-0.032
1040.08	-0.032
1040.24	-0.033
1040.40	-0.033
1040.56	-0.032
1040.72	-0.031
1040.89	-0.030
1041.05	-0.030
1041.21	-0.030
1041.37	-0.031
1041.53	-0.029
1041.69	-0.028
1041.86	-0.029
1042.02	-0.027
1042.18	-0.027
1042.34	-0.027
1042.50	-0.027
1042.66	-0.027
1042.83	-0.026
1042.99	-0.026
1043.15	-0.025
1043.31	-0.024
1043.47	-0.026
1043.63	-0.026
1043.79	-0.027
1043.96	-0.027
1044.12	-0.026
1044.28	-0.026
1044.44	-0.026
1044.60	-0.025
1044.76	-0.024
1044.92	-0.024
1045.09	-0.024
1045.25	-0.023
1045.41	-0.023
1045.57	-0.022
1045.73	-0.022
1045.89	-0.022
1046.05	-0.021
1046.21	-0.025
1046.38	-0.019
1046.54	-0.017
1046.70	-0.028
1046.86	-0.014
>>>>>End Processed Spectral Data<<<<<
