SpectraSuite Data File
++++++++++++++++++++++++++++++++++++
Date: Mon May 06 13:29:11 CDT 2013
User: Students
Dark Spectrum Present: Yes
Reference Spectrum Present: Yes
Number of Sampled Component Spectra: 1
Spectrometers: USB4H00887
Integration Time (usec): 50000 (USB4H00887)
Spectra Averaged: 10 (USB4H00887)
Boxcar Smoothing: 5 (USB4H00887)
Correct for Electrical Dark: No (USB4H00887)
Strobe/Lamp Enabled: No (USB4H00887)
Correct for Detector Non-linearity: No (USB4H00887)
Correct for Stray Light: No (USB4H00887)
Number of Pixels in Processed Spectrum: 3648
>>>>>Begin Processed Spectral Data<<<<<
345.83	-0.000
346.05	-0.000
346.26	-0.000
346.48	-0.000
346.70	0.572
346.92	0.332
347.14	-0.061
347.35	-0.276
347.57	-0.392
347.79	-0.279
348.01	-0.285
348.23	-0.314
348.44	-0.456
348.66	-0.288
348.88	-0.242
349.10	-0.182
349.32	-0.122
349.53	-0.066
349.75	-0.077
349.97	-0.050
350.19	-0.099
350.41	-0.125
350.62	-0.112
350.84	-0.100
351.06	-0.089
351.28	-0.060
351.50	-0.078
351.71	-0.118
351.93	-0.178
352.15	-0.162
352.37	-0.214
352.58	-0.174
352.80	-0.144
353.02	-0.128
353.24	-0.120
353.46	-0.177
353.67	-0.215
353.89	-0.213
354.11	-0.149
354.33	-0.137
354.54	-0.114
354.76	-0.082
354.98	-0.055
355.20	-0.058
355.41	-0.025
355.63	-0.011
355.85	0.036
356.07	0.030
356.28	0.085
356.50	0.055
356.72	0.054
356.94	0.024
357.15	0.059
357.37	0.007
357.59	-0.023
357.81	-0.062
358.02	-0.054
358.24	0.001
358.46	-0.019
358.68	-0.024
358.89	-0.024
359.11	-0.040
359.33	-0.020
359.55	-0.060
359.76	-0.031
359.98	-0.021
360.20	-0.015
360.42	-0.027
360.63	-0.093
360.85	-0.024
361.07	-0.026
361.29	-0.010
361.50	-0.016
361.72	-0.020
361.94	-0.014
362.15	-0.005
362.37	0.013
362.59	-0.003
362.81	-0.019
363.02	-0.021
363.24	-0.049
363.46	-0.050
363.68	-0.059
363.89	-0.035
364.11	-0.048
364.33	-0.058
364.54	-0.054
364.76	-0.079
364.98	-0.052
365.20	-0.038
365.41	0.004
365.63	0.013
365.85	0.003
366.06	-0.000
366.28	-0.001
366.50	0.045
366.71	0.063
366.93	0.063
367.15	0.110
367.37	0.064
367.58	0.077
367.80	0.051
368.02	0.077
368.23	0.106
368.45	0.090
368.67	0.102
368.88	0.074
369.10	0.090
369.32	0.072
369.53	0.038
369.75	0.067
369.97	0.064
370.19	0.069
370.40	0.040
370.62	0.002
370.84	0.042
371.05	0.033
371.27	0.059
371.49	0.068
371.70	0.092
371.92	0.121
372.14	0.102
372.35	0.081
372.57	0.104
372.79	0.078
373.00	0.091
373.22	0.077
373.44	0.043
373.65	0.042
373.87	0.038
374.09	0.024
374.30	0.011
374.52	0.035
374.74	0.060
374.95	0.022
375.17	0.064
375.39	0.088
375.60	0.075
375.82	0.097
376.04	0.079
376.25	0.057
376.47	0.042
376.68	0.054
376.90	0.054
377.12	0.042
377.33	0.056
377.55	0.055
377.77	0.034
377.98	0.079
378.20	0.098
378.42	0.118
378.63	0.143
378.85	0.192
379.07	0.178
379.28	0.155
379.50	0.159
379.71	0.183
379.93	0.175
380.15	0.188
380.36	0.153
380.58	0.152
380.80	0.137
381.01	0.139
381.23	0.107
381.44	0.116
381.66	0.148
381.88	0.159
382.09	0.178
382.31	0.168
382.53	0.173
382.74	0.201
382.96	0.209
383.17	0.203
383.39	0.199
383.61	0.205
383.82	0.216
384.04	0.216
384.25	0.228
384.47	0.219
384.69	0.227
384.90	0.212
385.12	0.213
385.33	0.192
385.55	0.230
385.77	0.252
385.98	0.215
386.20	0.189
386.41	0.189
386.63	0.183
386.85	0.164
387.06	0.182
387.28	0.202
387.49	0.215
387.71	0.223
387.93	0.210
388.14	0.205
388.36	0.225
388.57	0.246
388.79	0.239
389.01	0.256
389.22	0.252
389.44	0.258
389.65	0.264
389.87	0.249
390.08	0.251
390.30	0.284
390.52	0.304
390.73	0.314
390.95	0.300
391.16	0.314
391.38	0.302
391.59	0.310
391.81	0.287
392.03	0.290
392.24	0.307
392.46	0.308
392.67	0.280
392.89	0.257
393.10	0.269
393.32	0.286
393.53	0.306
393.75	0.290
393.97	0.297
394.18	0.338
394.40	0.328
394.61	0.309
394.83	0.318
395.04	0.313
395.26	0.330
395.47	0.339
395.69	0.343
395.91	0.333
396.12	0.375
396.34	0.406
396.55	0.397
396.77	0.393
396.98	0.405
397.20	0.405
397.41	0.423
397.63	0.437
397.84	0.412
398.06	0.415
398.27	0.431
398.49	0.391
398.71	0.377
398.92	0.388
399.14	0.384
399.35	0.403
399.57	0.403
399.78	0.410
400.00	0.404
400.21	0.420
400.43	0.429
400.64	0.428
400.86	0.449
401.07	0.424
401.29	0.398
401.50	0.410
401.72	0.393
401.93	0.404
402.15	0.420
402.36	0.426
402.58	0.422
402.79	0.412
403.01	0.399
403.22	0.396
403.44	0.432
403.65	0.427
403.87	0.413
404.08	0.415
404.30	0.413
404.51	0.407
404.73	0.400
404.94	0.408
405.16	0.420
405.37	0.423
405.59	0.423
405.80	0.404
406.02	0.402
406.23	0.412
406.45	0.440
406.66	0.435
406.88	0.431
407.09	0.436
407.31	0.434
407.52	0.430
407.74	0.441
407.95	0.450
408.17	0.447
408.38	0.475
408.60	0.476
408.81	0.445
409.03	0.448
409.24	0.449
409.45	0.441
409.67	0.441
409.88	0.432
410.10	0.438
410.31	0.448
410.53	0.471
410.74	0.482
410.96	0.490
411.17	0.514
411.39	0.510
411.60	0.517
411.82	0.514
412.03	0.544
412.24	0.553
412.46	0.561
412.67	0.561
412.89	0.557
413.10	0.563
413.32	0.586
413.53	0.602
413.75	0.599
413.96	0.587
414.17	0.603
414.39	0.592
414.60	0.604
414.82	0.609
415.03	0.581
415.25	0.597
415.46	0.582
415.68	0.579
415.89	0.569
416.10	0.592
416.32	0.613
416.53	0.613
416.75	0.608
416.96	0.575
417.18	0.576
417.39	0.587
417.60	0.576
417.82	0.571
418.03	0.561
418.25	0.567
418.46	0.551
418.67	0.544
418.89	0.541
419.10	0.542
419.32	0.567
419.53	0.561
419.75	0.560
419.96	0.569
420.17	0.573
420.39	0.566
420.60	0.577
420.82	0.585
421.03	0.602
421.24	0.597
421.46	0.590
421.67	0.596
421.89	0.613
422.10	0.631
422.31	0.636
422.53	0.626
422.74	0.623
422.96	0.600
423.17	0.603
423.38	0.585
423.60	0.587
423.81	0.582
424.03	0.587
424.24	0.575
424.45	0.564
424.67	0.549
424.88	0.546
425.09	0.545
425.31	0.542
425.52	0.545
425.74	0.543
425.95	0.557
426.16	0.577
426.38	0.574
426.59	0.585
426.80	0.591
427.02	0.600
427.23	0.609
427.45	0.632
427.66	0.638
427.87	0.631
428.09	0.651
428.30	0.647
428.51	0.641
428.73	0.637
428.94	0.629
429.15	0.620
429.37	0.618
429.58	0.627
429.79	0.617
430.01	0.633
430.22	0.639
430.44	0.625
430.65	0.621
430.86	0.622
431.08	0.629
431.29	0.628
431.50	0.637
431.72	0.639
431.93	0.647
432.14	0.661
432.36	0.645
432.57	0.647
432.78	0.656
433.00	0.660
433.21	0.656
433.42	0.643
433.64	0.654
433.85	0.663
434.06	0.665
434.28	0.657
434.49	0.650
434.70	0.640
434.92	0.639
435.13	0.648
435.34	0.660
435.56	0.648
435.77	0.654
435.98	0.639
436.20	0.630
436.41	0.618
436.62	0.616
436.83	0.616
437.05	0.627
437.26	0.629
437.47	0.617
437.69	0.606
437.90	0.622
438.11	0.634
438.33	0.632
438.54	0.633
438.75	0.641
438.97	0.641
439.18	0.644
439.39	0.649
439.60	0.644
439.82	0.643
440.03	0.651
440.24	0.644
440.46	0.639
440.67	0.645
440.88	0.642
441.10	0.649
441.31	0.657
441.52	0.656
441.73	0.649
441.95	0.650
442.16	0.651
442.37	0.645
442.58	0.648
442.80	0.647
443.01	0.639
443.22	0.645
443.44	0.647
443.65	0.638
443.86	0.632
444.07	0.641
444.29	0.645
444.50	0.645
444.71	0.647
444.92	0.639
445.14	0.641
445.35	0.651
445.56	0.649
445.78	0.641
445.99	0.640
446.20	0.643
446.41	0.642
446.63	0.636
446.84	0.639
447.05	0.638
447.26	0.643
447.48	0.631
447.69	0.630
447.90	0.628
448.11	0.630
448.33	0.630
448.54	0.631
448.75	0.625
448.96	0.627
449.18	0.630
449.39	0.627
449.60	0.622
449.81	0.622
450.03	0.612
450.24	0.603
450.45	0.598
450.66	0.594
450.87	0.596
451.09	0.596
451.30	0.595
451.51	0.587
451.72	0.584
451.94	0.596
452.15	0.599
452.36	0.605
452.57	0.612
452.78	0.609
453.00	0.617
453.21	0.616
453.42	0.614
453.63	0.608
453.85	0.616
454.06	0.613
454.27	0.606
454.48	0.613
454.69	0.615
454.91	0.617
455.12	0.622
455.33	0.617
455.54	0.614
455.75	0.612
455.97	0.611
456.18	0.608
456.39	0.609
456.60	0.613
456.81	0.607
457.03	0.607
457.24	0.606
457.45	0.606
457.66	0.604
457.87	0.602
458.09	0.604
458.30	0.610
458.51	0.611
458.72	0.617
458.93	0.607
459.15	0.604
459.36	0.601
459.57	0.597
459.78	0.593
459.99	0.600
460.20	0.602
460.42	0.602
460.63	0.602
460.84	0.599
461.05	0.591
461.26	0.593
461.47	0.592
461.69	0.591
461.90	0.591
462.11	0.595
462.32	0.591
462.53	0.587
462.74	0.584
462.96	0.580
463.17	0.575
463.38	0.580
463.59	0.580
463.80	0.581
464.01	0.582
464.23	0.577
464.44	0.571
464.65	0.574
464.86	0.575
465.07	0.575
465.28	0.573
465.49	0.578
465.71	0.576
465.92	0.579
466.13	0.577
466.34	0.577
466.55	0.581
466.76	0.583
466.97	0.580
467.19	0.580
467.40	0.581
467.61	0.583
467.82	0.578
468.03	0.575
468.24	0.570
468.45	0.572
468.66	0.573
468.88	0.571
469.09	0.570
469.30	0.569
469.51	0.569
469.72	0.569
469.93	0.568
470.14	0.570
470.35	0.572
470.57	0.573
470.78	0.572
470.99	0.565
471.20	0.564
471.41	0.563
471.62	0.562
471.83	0.558
472.04	0.558
472.25	0.557
472.47	0.551
472.68	0.549
472.89	0.550
473.10	0.548
473.31	0.547
473.52	0.549
473.73	0.548
473.94	0.548
474.15	0.551
474.36	0.549
474.57	0.551
474.79	0.553
475.00	0.554
475.21	0.553
475.42	0.555
475.63	0.558
475.84	0.559
476.05	0.560
476.26	0.559
476.47	0.558
476.68	0.558
476.89	0.556
477.10	0.558
477.32	0.556
477.53	0.553
477.74	0.552
477.95	0.551
478.16	0.547
478.37	0.547
478.58	0.548
478.79	0.545
479.00	0.545
479.21	0.543
479.42	0.543
479.63	0.544
479.84	0.545
480.05	0.544
480.26	0.543
480.47	0.545
480.69	0.543
480.90	0.543
481.11	0.544
481.32	0.544
481.53	0.544
481.74	0.543
481.95	0.542
482.16	0.541
482.37	0.540
482.58	0.541
482.79	0.539
483.00	0.539
483.21	0.537
483.42	0.534
483.63	0.532
483.84	0.531
484.05	0.531
484.26	0.529
484.47	0.530
484.68	0.529
484.89	0.528
485.10	0.526
485.31	0.526
485.52	0.528
485.73	0.528
485.94	0.528
486.15	0.528
486.37	0.527
486.58	0.527
486.79	0.527
487.00	0.527
487.21	0.526
487.42	0.527
487.63	0.527
487.84	0.526
488.05	0.526
488.26	0.525
488.47	0.524
488.68	0.525
488.89	0.525
489.10	0.525
489.31	0.524
489.52	0.523
489.73	0.522
489.94	0.522
490.15	0.522
490.36	0.521
490.57	0.521
490.78	0.521
490.99	0.519
491.20	0.518
491.41	0.517
491.62	0.518
491.83	0.518
492.04	0.516
492.25	0.515
492.45	0.513
492.66	0.513
492.87	0.512
493.08	0.511
493.29	0.511
493.50	0.509
493.71	0.509
493.92	0.509
494.13	0.508
494.34	0.510
494.55	0.511
494.76	0.510
494.97	0.509
495.18	0.510
495.39	0.509
495.60	0.511
495.81	0.511
496.02	0.509
496.23	0.508
496.44	0.507
496.65	0.507
496.86	0.506
497.07	0.506
497.28	0.505
497.49	0.504
497.70	0.504
497.91	0.503
498.12	0.503
498.32	0.503
498.53	0.503
498.74	0.502
498.95	0.501
499.16	0.500
499.37	0.497
499.58	0.498
499.79	0.499
500.00	0.499
500.21	0.498
500.42	0.497
500.63	0.497
500.84	0.496
501.05	0.496
501.26	0.494
501.46	0.494
501.67	0.496
501.88	0.495
502.09	0.493
502.30	0.491
502.51	0.491
502.72	0.490
502.93	0.490
503.14	0.490
503.35	0.488
503.56	0.489
503.77	0.490
503.97	0.488
504.18	0.487
504.39	0.488
504.60	0.488
504.81	0.487
505.02	0.488
505.23	0.487
505.44	0.485
505.65	0.487
505.86	0.486
506.07	0.484
506.27	0.483
506.48	0.482
506.69	0.481
506.90	0.480
507.11	0.479
507.32	0.478
507.53	0.478
507.74	0.477
507.95	0.475
508.15	0.475
508.36	0.475
508.57	0.476
508.78	0.475
508.99	0.474
509.20	0.474
509.41	0.472
509.62	0.472
509.82	0.472
510.03	0.471
510.24	0.470
510.45	0.469
510.66	0.467
510.87	0.467
511.08	0.467
511.29	0.465
511.49	0.464
511.70	0.463
511.91	0.462
512.12	0.460
512.33	0.459
512.54	0.458
512.75	0.457
512.95	0.456
513.16	0.454
513.37	0.453
513.58	0.452
513.79	0.450
514.00	0.450
514.20	0.449
514.41	0.448
514.62	0.447
514.83	0.447
515.04	0.445
515.25	0.445
515.46	0.444
515.66	0.442
515.87	0.442
516.08	0.442
516.29	0.442
516.50	0.442
516.71	0.441
516.91	0.440
517.12	0.439
517.33	0.438
517.54	0.437
517.75	0.436
517.95	0.436
518.16	0.434
518.37	0.433
518.58	0.431
518.79	0.431
519.00	0.430
519.20	0.428
519.41	0.427
519.62	0.426
519.83	0.425
520.04	0.424
520.24	0.423
520.45	0.423
520.66	0.422
520.87	0.421
521.08	0.419
521.28	0.417
521.49	0.417
521.70	0.416
521.91	0.415
522.12	0.414
522.32	0.413
522.53	0.412
522.74	0.411
522.95	0.410
523.16	0.410
523.36	0.409
523.57	0.409
523.78	0.408
523.99	0.406
524.20	0.405
524.40	0.405
524.61	0.404
524.82	0.402
525.03	0.402
525.23	0.401
525.44	0.400
525.65	0.399
525.86	0.398
526.06	0.397
526.27	0.397
526.48	0.396
526.69	0.396
526.90	0.395
527.10	0.394
527.31	0.393
527.52	0.393
527.73	0.391
527.93	0.390
528.14	0.389
528.35	0.388
528.56	0.387
528.76	0.385
528.97	0.384
529.18	0.384
529.39	0.383
529.59	0.382
529.80	0.380
530.01	0.379
530.22	0.378
530.42	0.377
530.63	0.376
530.84	0.374
531.05	0.374
531.25	0.373
531.46	0.372
531.67	0.370
531.88	0.369
532.08	0.368
532.29	0.368
532.50	0.367
532.70	0.367
532.91	0.366
533.12	0.365
533.33	0.364
533.53	0.363
533.74	0.362
533.95	0.361
534.15	0.360
534.36	0.358
534.57	0.357
534.78	0.357
534.98	0.355
535.19	0.354
535.40	0.353
535.60	0.352
535.81	0.350
536.02	0.349
536.23	0.348
536.43	0.348
536.64	0.346
536.85	0.345
537.05	0.344
537.26	0.342
537.47	0.341
537.67	0.340
537.88	0.339
538.09	0.338
538.30	0.338
538.50	0.336
538.71	0.333
538.92	0.332
539.12	0.331
539.33	0.330
539.54	0.328
539.74	0.328
539.95	0.327
540.16	0.325
540.36	0.323
540.57	0.321
540.78	0.320
540.98	0.319
541.19	0.317
541.40	0.316
541.60	0.315
541.81	0.314
542.02	0.312
542.22	0.311
542.43	0.309
542.64	0.308
542.84	0.307
543.05	0.306
543.26	0.304
543.46	0.302
543.67	0.302
543.88	0.300
544.08	0.298
544.29	0.296
544.50	0.295
544.70	0.293
544.91	0.292
545.12	0.290
545.32	0.288
545.53	0.287
545.74	0.286
545.94	0.284
546.15	0.282
546.35	0.281
546.56	0.279
546.77	0.278
546.97	0.276
547.18	0.275
547.39	0.274
547.59	0.272
547.80	0.271
548.01	0.269
548.21	0.268
548.42	0.266
548.62	0.265
548.83	0.264
549.04	0.262
549.24	0.261
549.45	0.259
549.65	0.257
549.86	0.256
550.07	0.254
550.27	0.253
550.48	0.251
550.69	0.249
550.89	0.247
551.10	0.245
551.30	0.244
551.51	0.242
551.72	0.240
551.92	0.238
552.13	0.236
552.33	0.234
552.54	0.232
552.75	0.230
552.95	0.228
553.16	0.226
553.36	0.225
553.57	0.223
553.78	0.221
553.98	0.220
554.19	0.218
554.39	0.216
554.60	0.214
554.80	0.213
555.01	0.212
555.22	0.210
555.42	0.209
555.63	0.207
555.83	0.205
556.04	0.204
556.25	0.202
556.45	0.201
556.66	0.199
556.86	0.198
557.07	0.196
557.27	0.194
557.48	0.192
557.68	0.190
557.89	0.188
558.10	0.187
558.30	0.185
558.51	0.184
558.71	0.182
558.92	0.180
559.12	0.178
559.33	0.176
559.54	0.175
559.74	0.174
559.95	0.172
560.15	0.171
560.36	0.170
560.56	0.168
560.77	0.167
560.97	0.165
561.18	0.164
561.38	0.162
561.59	0.161
561.79	0.159
562.00	0.158
562.21	0.156
562.41	0.154
562.62	0.152
562.82	0.151
563.03	0.149
563.23	0.148
563.44	0.146
563.64	0.145
563.85	0.143
564.05	0.142
564.26	0.140
564.46	0.139
564.67	0.137
564.87	0.136
565.08	0.134
565.28	0.133
565.49	0.132
565.69	0.131
565.90	0.129
566.10	0.127
566.31	0.125
566.51	0.124
566.72	0.123
566.92	0.121
567.13	0.120
567.33	0.118
567.54	0.117
567.74	0.116
567.95	0.115
568.15	0.114
568.36	0.113
568.56	0.112
568.77	0.111
568.97	0.110
569.18	0.108
569.38	0.107
569.59	0.106
569.79	0.104
570.00	0.102
570.20	0.101
570.41	0.100
570.61	0.099
570.82	0.097
571.02	0.095
571.23	0.094
571.43	0.093
571.64	0.092
571.84	0.091
572.05	0.090
572.25	0.089
572.45	0.088
572.66	0.087
572.86	0.086
573.07	0.085
573.27	0.085
573.48	0.084
573.68	0.083
573.89	0.082
574.09	0.081
574.30	0.080
574.50	0.079
574.70	0.077
574.91	0.076
575.11	0.075
575.32	0.074
575.52	0.073
575.73	0.072
575.93	0.072
576.14	0.071
576.34	0.069
576.54	0.068
576.75	0.067
576.95	0.066
577.16	0.065
577.36	0.065
577.57	0.063
577.77	0.062
577.97	0.061
578.18	0.061
578.38	0.060
578.59	0.059
578.79	0.059
579.00	0.058
579.20	0.057
579.40	0.056
579.61	0.056
579.81	0.055
580.02	0.054
580.22	0.054
580.42	0.053
580.63	0.053
580.83	0.053
581.04	0.052
581.24	0.052
581.45	0.051
581.65	0.051
581.85	0.050
582.06	0.049
582.26	0.048
582.47	0.048
582.67	0.047
582.87	0.046
583.08	0.046
583.28	0.045
583.48	0.044
583.69	0.044
583.89	0.044
584.10	0.043
584.30	0.043
584.50	0.042
584.71	0.042
584.91	0.041
585.12	0.041
585.32	0.040
585.52	0.040
585.73	0.039
585.93	0.038
586.13	0.038
586.34	0.037
586.54	0.037
586.75	0.036
586.95	0.036
587.15	0.036
587.36	0.035
587.56	0.035
587.76	0.034
587.97	0.034
588.17	0.034
588.37	0.033
588.58	0.033
588.78	0.033
588.98	0.033
589.19	0.033
589.39	0.032
589.60	0.031
589.80	0.031
590.00	0.031
590.21	0.030
590.41	0.030
590.61	0.030
590.82	0.029
591.02	0.028
591.22	0.028
591.43	0.028
591.63	0.027
591.83	0.028
592.04	0.027
592.24	0.027
592.44	0.027
592.65	0.026
592.85	0.026
593.05	0.027
593.26	0.026
593.46	0.026
593.66	0.026
593.86	0.026
594.07	0.025
594.27	0.025
594.47	0.025
594.68	0.025
594.88	0.024
595.08	0.024
595.29	0.024
595.49	0.024
595.69	0.023
595.90	0.023
596.10	0.023
596.30	0.023
596.50	0.023
596.71	0.023
596.91	0.023
597.11	0.024
597.32	0.023
597.52	0.023
597.72	0.023
597.93	0.023
598.13	0.023
598.33	0.023
598.53	0.023
598.74	0.023
598.94	0.023
599.14	0.022
599.35	0.022
599.55	0.022
599.75	0.022
599.95	0.021
600.16	0.021
600.36	0.021
600.56	0.020
600.76	0.021
600.97	0.021
601.17	0.021
601.37	0.021
601.58	0.021
601.78	0.020
601.98	0.020
602.18	0.020
602.39	0.020
602.59	0.020
602.79	0.021
602.99	0.020
603.20	0.020
603.40	0.020
603.60	0.020
603.80	0.020
604.01	0.019
604.21	0.019
604.41	0.020
604.61	0.020
604.82	0.019
605.02	0.019
605.22	0.019
605.42	0.019
605.62	0.020
605.83	0.020
606.03	0.019
606.23	0.020
606.43	0.020
606.64	0.020
606.84	0.020
607.04	0.020
607.24	0.020
607.45	0.020
607.65	0.019
607.85	0.019
608.05	0.019
608.25	0.019
608.46	0.019
608.66	0.019
608.86	0.019
609.06	0.018
609.26	0.019
609.47	0.019
609.67	0.019
609.87	0.019
610.07	0.019
610.28	0.018
610.48	0.019
610.68	0.018
610.88	0.018
611.08	0.018
611.29	0.018
611.49	0.018
611.69	0.018
611.89	0.018
612.09	0.018
612.29	0.018
612.50	0.018
612.70	0.018
612.90	0.018
613.10	0.017
613.30	0.018
613.51	0.018
613.71	0.017
613.91	0.017
614.11	0.017
614.31	0.017
614.51	0.017
614.72	0.017
614.92	0.017
615.12	0.017
615.32	0.017
615.52	0.018
615.72	0.017
615.93	0.017
616.13	0.017
616.33	0.017
616.53	0.018
616.73	0.017
616.93	0.017
617.14	0.017
617.34	0.017
617.54	0.017
617.74	0.017
617.94	0.017
618.14	0.018
618.34	0.017
618.55	0.018
618.75	0.018
618.95	0.018
619.15	0.018
619.35	0.018
619.55	0.018
619.75	0.018
619.96	0.018
620.16	0.018
620.36	0.017
620.56	0.017
620.76	0.017
620.96	0.017
621.16	0.017
621.36	0.017
621.57	0.017
621.77	0.017
621.97	0.017
622.17	0.017
622.37	0.017
622.57	0.017
622.77	0.018
622.97	0.018
623.18	0.018
623.38	0.018
623.58	0.018
623.78	0.017
623.98	0.017
624.18	0.017
624.38	0.017
624.58	0.018
624.78	0.017
624.98	0.017
625.19	0.017
625.39	0.017
625.59	0.017
625.79	0.017
625.99	0.017
626.19	0.017
626.39	0.017
626.59	0.017
626.79	0.017
626.99	0.017
627.19	0.018
627.40	0.017
627.60	0.017
627.80	0.018
628.00	0.017
628.20	0.017
628.40	0.017
628.60	0.017
628.80	0.017
629.00	0.017
629.20	0.017
629.40	0.017
629.60	0.017
629.80	0.017
630.00	0.017
630.20	0.017
630.41	0.017
630.61	0.017
630.81	0.017
631.01	0.017
631.21	0.017
631.41	0.017
631.61	0.017
631.81	0.017
632.01	0.017
632.21	0.017
632.41	0.017
632.61	0.017
632.81	0.017
633.01	0.017
633.21	0.017
633.41	0.017
633.61	0.017
633.81	0.017
634.01	0.016
634.21	0.017
634.41	0.016
634.61	0.016
634.81	0.016
635.01	0.016
635.22	0.016
635.42	0.016
635.62	0.016
635.82	0.016
636.02	0.016
636.22	0.016
636.42	0.016
636.62	0.016
636.82	0.016
637.02	0.016
637.22	0.017
637.42	0.017
637.62	0.017
637.82	0.017
638.02	0.017
638.22	0.017
638.42	0.017
638.62	0.017
638.82	0.017
639.02	0.017
639.22	0.017
639.42	0.017
639.62	0.017
639.82	0.017
640.02	0.017
640.22	0.017
640.42	0.017
640.62	0.017
640.82	0.016
641.02	0.016
641.22	0.017
641.42	0.017
641.61	0.017
641.81	0.017
642.01	0.017
642.21	0.017
642.41	0.017
642.61	0.017
642.81	0.017
643.01	0.017
643.21	0.017
643.41	0.017
643.61	0.017
643.81	0.017
644.01	0.017
644.21	0.017
644.41	0.017
644.61	0.016
644.81	0.016
645.01	0.016
645.21	0.016
645.41	0.016
645.61	0.016
645.81	0.016
646.01	0.016
646.21	0.016
646.40	0.016
646.60	0.017
646.80	0.017
647.00	0.017
647.20	0.017
647.40	0.016
647.60	0.016
647.80	0.016
648.00	0.016
648.20	0.016
648.40	0.016
648.60	0.016
648.80	0.016
649.00	0.015
649.20	0.015
649.39	0.015
649.59	0.016
649.79	0.016
649.99	0.016
650.19	0.016
650.39	0.016
650.59	0.016
650.79	0.016
650.99	0.016
651.19	0.016
651.39	0.016
651.58	0.016
651.78	0.016
651.98	0.016
652.18	0.016
652.38	0.016
652.58	0.016
652.78	0.016
652.98	0.016
653.18	0.016
653.38	0.016
653.57	0.017
653.77	0.016
653.97	0.016
654.17	0.016
654.37	0.016
654.57	0.016
654.77	0.016
654.97	0.016
655.16	0.016
655.36	0.016
655.56	0.016
655.76	0.015
655.96	0.015
656.16	0.015
656.36	0.015
656.56	0.015
656.75	0.015
656.95	0.015
657.15	0.015
657.35	0.016
657.55	0.016
657.75	0.016
657.95	0.016
658.14	0.016
658.34	0.016
658.54	0.016
658.74	0.016
658.94	0.016
659.14	0.016
659.34	0.015
659.53	0.015
659.73	0.015
659.93	0.015
660.13	0.015
660.33	0.015
660.53	0.015
660.72	0.015
660.92	0.015
661.12	0.015
661.32	0.015
661.52	0.015
661.72	0.015
661.91	0.015
662.11	0.015
662.31	0.015
662.51	0.015
662.71	0.015
662.90	0.015
663.10	0.015
663.30	0.015
663.50	0.015
663.70	0.015
663.90	0.015
664.09	0.015
664.29	0.015
664.49	0.015
664.69	0.016
664.89	0.015
665.08	0.015
665.28	0.016
665.48	0.016
665.68	0.016
665.88	0.016
666.07	0.016
666.27	0.016
666.47	0.015
666.67	0.015
666.87	0.015
667.06	0.015
667.26	0.015
667.46	0.015
667.66	0.015
667.85	0.015
668.05	0.015
668.25	0.015
668.45	0.015
668.65	0.015
668.84	0.015
669.04	0.015
669.24	0.015
669.44	0.015
669.63	0.015
669.83	0.015
670.03	0.015
670.23	0.015
670.42	0.015
670.62	0.014
670.82	0.014
671.02	0.014
671.22	0.014
671.41	0.014
671.61	0.014
671.81	0.014
672.01	0.014
672.20	0.015
672.40	0.015
672.60	0.015
672.80	0.015
672.99	0.015
673.19	0.015
673.39	0.015
673.58	0.015
673.78	0.015
673.98	0.015
674.18	0.015
674.37	0.015
674.57	0.015
674.77	0.015
674.97	0.015
675.16	0.014
675.36	0.014
675.56	0.014
675.75	0.014
675.95	0.014
676.15	0.014
676.35	0.014
676.54	0.014
676.74	0.014
676.94	0.014
677.13	0.014
677.33	0.014
677.53	0.014
677.73	0.014
677.92	0.015
678.12	0.015
678.32	0.015
678.51	0.015
678.71	0.015
678.91	0.015
679.11	0.015
679.30	0.015
679.50	0.015
679.70	0.015
679.89	0.015
680.09	0.015
680.29	0.015
680.48	0.015
680.68	0.015
680.88	0.015
681.07	0.015
681.27	0.015
681.47	0.015
681.66	0.015
681.86	0.015
682.06	0.015
682.25	0.015
682.45	0.015
682.65	0.014
682.84	0.015
683.04	0.015
683.24	0.015
683.43	0.015
683.63	0.015
683.83	0.015
684.02	0.015
684.22	0.015
684.42	0.015
684.61	0.015
684.81	0.015
685.01	0.015
685.20	0.015
685.40	0.015
685.60	0.015
685.79	0.015
685.99	0.015
686.19	0.015
686.38	0.015
686.58	0.015
686.77	0.015
686.97	0.015
687.17	0.015
687.36	0.015
687.56	0.015
687.76	0.015
687.95	0.015
688.15	0.015
688.34	0.014
688.54	0.014
688.74	0.014
688.93	0.014
689.13	0.015
689.33	0.015
689.52	0.015
689.72	0.014
689.91	0.014
690.11	0.014
690.31	0.014
690.50	0.014
690.70	0.015
690.89	0.015
691.09	0.015
691.29	0.015
691.48	0.014
691.68	0.014
691.87	0.015
692.07	0.015
692.27	0.015
692.46	0.015
692.66	0.015
692.85	0.015
693.05	0.015
693.25	0.015
693.44	0.015
693.64	0.015
693.83	0.015
694.03	0.015
694.22	0.015
694.42	0.015
694.62	0.015
694.81	0.015
695.01	0.015
695.20	0.015
695.40	0.014
695.59	0.014
695.79	0.015
695.99	0.014
696.18	0.014
696.38	0.014
696.57	0.014
696.77	0.014
696.96	0.014
697.16	0.014
697.36	0.014
697.55	0.014
697.75	0.015
697.94	0.015
698.14	0.014
698.33	0.015
698.53	0.015
698.72	0.014
698.92	0.014
699.11	0.014
699.31	0.014
699.51	0.014
699.70	0.014
699.90	0.014
700.09	0.013
700.29	0.014
700.48	0.014
700.68	0.013
700.87	0.014
701.07	0.014
701.26	0.014
701.46	0.014
701.65	0.014
701.85	0.014
702.04	0.014
702.24	0.015
702.43	0.015
702.63	0.014
702.82	0.014
703.02	0.014
703.21	0.013
703.41	0.013
703.60	0.013
703.80	0.014
703.99	0.014
704.19	0.014
704.38	0.014
704.58	0.014
704.77	0.014
704.97	0.014
705.16	0.014
705.36	0.014
705.55	0.014
705.75	0.014
705.94	0.014
706.14	0.014
706.33	0.014
706.53	0.014
706.72	0.014
706.92	0.013
707.11	0.013
707.31	0.013
707.50	0.013
707.70	0.013
707.89	0.013
708.09	0.013
708.28	0.013
708.48	0.013
708.67	0.013
708.86	0.013
709.06	0.013
709.25	0.013
709.45	0.013
709.64	0.013
709.84	0.013
710.03	0.013
710.23	0.013
710.42	0.013
710.62	0.013
710.81	0.014
711.00	0.014
711.20	0.014
711.39	0.014
711.59	0.013
711.78	0.013
711.98	0.013
712.17	0.013
712.37	0.013
712.56	0.013
712.75	0.013
712.95	0.013
713.14	0.013
713.34	0.013
713.53	0.013
713.73	0.013
713.92	0.013
714.11	0.013
714.31	0.013
714.50	0.013
714.70	0.013
714.89	0.013
715.08	0.013
715.28	0.013
715.47	0.013
715.67	0.013
715.86	0.013
716.06	0.014
716.25	0.014
716.44	0.013
716.64	0.013
716.83	0.013
717.03	0.012
717.22	0.013
717.41	0.012
717.61	0.012
717.80	0.012
717.99	0.012
718.19	0.012
718.38	0.012
718.58	0.012
718.77	0.012
718.96	0.012
719.16	0.012
719.35	0.012
719.55	0.012
719.74	0.013
719.93	0.012
720.13	0.012
720.32	0.012
720.51	0.012
720.71	0.012
720.90	0.012
721.10	0.012
721.29	0.012
721.48	0.012
721.68	0.011
721.87	0.011
722.06	0.011
722.26	0.011
722.45	0.010
722.64	0.010
722.84	0.010
723.03	0.010
723.22	0.010
723.42	0.010
723.61	0.010
723.80	0.010
724.00	0.010
724.19	0.010
724.38	0.010
724.58	0.010
724.77	0.010
724.96	0.010
725.16	0.010
725.35	0.010
725.54	0.010
725.74	0.010
725.93	0.010
726.12	0.010
726.32	0.010
726.51	0.010
726.70	0.009
726.90	0.009
727.09	0.009
727.28	0.009
727.48	0.009
727.67	0.009
727.86	0.009
728.06	0.009
728.25	0.009
728.44	0.009
728.64	0.009
728.83	0.009
729.02	0.009
729.21	0.009
729.41	0.009
729.60	0.008
729.79	0.008
729.99	0.008
730.18	0.007
730.37	0.007
730.56	0.007
730.76	0.007
730.95	0.007
731.14	0.007
731.34	0.007
731.53	0.007
731.72	0.007
731.91	0.007
732.11	0.007
732.30	0.007
732.49	0.007
732.69	0.007
732.88	0.007
733.07	0.007
733.26	0.007
733.46	0.007
733.65	0.007
733.84	0.007
734.03	0.006
734.23	0.006
734.42	0.006
734.61	0.006
734.80	0.006
735.00	0.006
735.19	0.006
735.38	0.007
735.57	0.006
735.77	0.007
735.96	0.006
736.15	0.006
736.34	0.006
736.54	0.006
736.73	0.006
736.92	0.006
737.11	0.006
737.31	0.006
737.50	0.005
737.69	0.005
737.88	0.005
738.07	0.006
738.27	0.006
738.46	0.006
738.65	0.006
738.84	0.006
739.04	0.006
739.23	0.006
739.42	0.006
739.61	0.006
739.80	0.006
740.00	0.006
740.19	0.005
740.38	0.005
740.57	0.005
740.76	0.005
740.96	0.005
741.15	0.005
741.34	0.005
741.53	0.005
741.72	0.005
741.92	0.005
742.11	0.005
742.30	0.006
742.49	0.006
742.68	0.006
742.88	0.006
743.07	0.006
743.26	0.006
743.45	0.006
743.64	0.006
743.84	0.006
744.03	0.006
744.22	0.006
744.41	0.006
744.60	0.007
744.79	0.007
744.99	0.007
745.18	0.007
745.37	0.007
745.56	0.007
745.75	0.007
745.94	0.007
746.14	0.007
746.33	0.007
746.52	0.007
746.71	0.006
746.90	0.006
747.09	0.006
747.28	0.006
747.48	0.007
747.67	0.007
747.86	0.007
748.05	0.007
748.24	0.007
748.43	0.007
748.62	0.007
748.82	0.007
749.01	0.007
749.20	0.007
749.39	0.007
749.58	0.007
749.77	0.007
749.96	0.007
750.16	0.007
750.35	0.008
750.54	0.008
750.73	0.008
750.92	0.008
751.11	0.007
751.30	0.007
751.49	0.007
751.68	0.007
751.88	0.007
752.07	0.007
752.26	0.007
752.45	0.007
752.64	0.007
752.83	0.007
753.02	0.007
753.21	0.007
753.40	0.007
753.60	0.008
753.79	0.007
753.98	0.008
754.17	0.008
754.36	0.008
754.55	0.009
754.74	0.008
754.93	0.008
755.12	0.008
755.31	0.008
755.50	0.008
755.70	0.008
755.89	0.009
756.08	0.009
756.27	0.009
756.46	0.009
756.65	0.009
756.84	0.010
757.03	0.010
757.22	0.010
757.41	0.011
757.60	0.011
757.79	0.011
757.98	0.010
758.17	0.010
758.36	0.010
758.56	0.010
758.75	0.010
758.94	0.010
759.13	0.010
759.32	0.010
759.51	0.009
759.70	0.009
759.89	0.009
760.08	0.009
760.27	0.009
760.46	0.009
760.65	0.009
760.84	0.009
761.03	0.009
761.22	0.009
761.41	0.009
761.60	0.009
761.79	0.009
761.98	0.009
762.17	0.009
762.36	0.009
762.55	0.009
762.74	0.009
762.93	0.009
763.12	0.009
763.31	0.009
763.50	0.009
763.69	0.009
763.88	0.009
764.07	0.009
764.26	0.009
764.45	0.009
764.64	0.009
764.83	0.009
765.02	0.009
765.21	0.009
765.40	0.009
765.59	0.008
765.78	0.008
765.97	0.009
766.16	0.008
766.35	0.008
766.54	0.008
766.73	0.009
766.92	0.008
767.11	0.008
767.30	0.008
767.49	0.008
767.68	0.008
767.87	0.008
768.06	0.008
768.25	0.007
768.44	0.007
768.63	0.007
768.82	0.007
769.01	0.007
769.20	0.007
769.39	0.007
769.58	0.006
769.77	0.007
769.96	0.007
770.15	0.006
770.34	0.007
770.53	0.007
770.72	0.006
770.91	0.007
771.10	0.006
771.29	0.006
771.47	0.006
771.66	0.006
771.85	0.006
772.04	0.006
772.23	0.006
772.42	0.006
772.61	0.006
772.80	0.006
772.99	0.006
773.18	0.006
773.37	0.006
773.56	0.006
773.75	0.006
773.94	0.006
774.13	0.006
774.31	0.006
774.50	0.006
774.69	0.006
774.88	0.006
775.07	0.006
775.26	0.006
775.45	0.006
775.64	0.006
775.83	0.006
776.02	0.006
776.21	0.006
776.40	0.006
776.58	0.006
776.77	0.005
776.96	0.005
777.15	0.005
777.34	0.005
777.53	0.005
777.72	0.005
777.91	0.005
778.10	0.005
778.28	0.005
778.47	0.005
778.66	0.004
778.85	0.005
779.04	0.005
779.23	0.005
779.42	0.005
779.61	0.004
779.79	0.005
779.98	0.005
780.17	0.005
780.36	0.005
780.55	0.005
780.74	0.005
780.93	0.005
781.12	0.005
781.30	0.005
781.49	0.005
781.68	0.005
781.87	0.005
782.06	0.005
782.25	0.005
782.44	0.005
782.62	0.005
782.81	0.005
783.00	0.005
783.19	0.005
783.38	0.005
783.57	0.005
783.75	0.005
783.94	0.005
784.13	0.005
784.32	0.005
784.51	0.005
784.70	0.005
784.88	0.005
785.07	0.005
785.26	0.005
785.45	0.005
785.64	0.005
785.83	0.005
786.01	0.005
786.20	0.005
786.39	0.005
786.58	0.005
786.77	0.005
786.95	0.005
787.14	0.005
787.33	0.005
787.52	0.005
787.71	0.005
787.90	0.005
788.08	0.005
788.27	0.005
788.46	0.005
788.65	0.005
788.84	0.005
789.02	0.005
789.21	0.005
789.40	0.005
789.59	0.005
789.77	0.005
789.96	0.005
790.15	0.005
790.34	0.005
790.53	0.005
790.71	0.005
790.90	0.005
791.09	0.005
791.28	0.005
791.46	0.006
791.65	0.006
791.84	0.006
792.03	0.006
792.22	0.006
792.40	0.006
792.59	0.006
792.78	0.006
792.97	0.006
793.15	0.006
793.34	0.006
793.53	0.006
793.72	0.006
793.90	0.006
794.09	0.006
794.28	0.006
794.47	0.006
794.65	0.006
794.84	0.006
795.03	0.007
795.22	0.007
795.40	0.007
795.59	0.007
795.78	0.007
795.97	0.008
796.15	0.008
796.34	0.008
796.53	0.008
796.71	0.008
796.90	0.008
797.09	0.008
797.28	0.008
797.46	0.008
797.65	0.007
797.84	0.007
798.02	0.007
798.21	0.007
798.40	0.007
798.59	0.008
798.77	0.007
798.96	0.007
799.15	0.007
799.33	0.007
799.52	0.007
799.71	0.008
799.90	0.008
800.08	0.008
800.27	0.008
800.46	0.008
800.64	0.007
800.83	0.007
801.02	0.007
801.20	0.008
801.39	0.008
801.58	0.008
801.76	0.007
801.95	0.007
802.14	0.007
802.32	0.008
802.51	0.008
802.70	0.008
802.88	0.008
803.07	0.008
803.26	0.008
803.44	0.008
803.63	0.008
803.82	0.007
804.00	0.008
804.19	0.008
804.38	0.008
804.56	0.007
804.75	0.008
804.94	0.008
805.12	0.008
805.31	0.008
805.50	0.008
805.68	0.008
805.87	0.008
806.06	0.008
806.24	0.008
806.43	0.009
806.62	0.009
806.80	0.008
806.99	0.008
807.17	0.008
807.36	0.008
807.55	0.008
807.73	0.008
807.92	0.008
808.11	0.008
808.29	0.008
808.48	0.008
808.66	0.008
808.85	0.008
809.04	0.008
809.22	0.009
809.41	0.009
809.59	0.009
809.78	0.009
809.97	0.009
810.15	0.009
810.34	0.009
810.53	0.009
810.71	0.008
810.90	0.008
811.08	0.008
811.27	0.008
811.45	0.008
811.64	0.008
811.83	0.008
812.01	0.007
812.20	0.007
812.38	0.007
812.57	0.007
812.76	0.008
812.94	0.008
813.13	0.007
813.31	0.007
813.50	0.007
813.68	0.007
813.87	0.008
814.06	0.008
814.24	0.008
814.43	0.008
814.61	0.008
814.80	0.008
814.98	0.008
815.17	0.008
815.36	0.008
815.54	0.008
815.73	0.008
815.91	0.008
816.10	0.008
816.28	0.008
816.47	0.008
816.65	0.008
816.84	0.008
817.03	0.008
817.21	0.008
817.40	0.008
817.58	0.008
817.77	0.008
817.95	0.008
818.14	0.008
818.32	0.008
818.51	0.008
818.69	0.008
818.88	0.008
819.06	0.008
819.25	0.008
819.43	0.008
819.62	0.008
819.80	0.008
819.99	0.008
820.18	0.008
820.36	0.008
820.55	0.008
820.73	0.008
820.92	0.008
821.10	0.008
821.29	0.008
821.47	0.008
821.66	0.008
821.84	0.008
822.03	0.008
822.21	0.008
822.40	0.008
822.58	0.008
822.77	0.008
822.95	0.008
823.14	0.007
823.32	0.007
823.50	0.007
823.69	0.007
823.87	0.007
824.06	0.007
824.24	0.007
824.43	0.007
824.61	0.007
824.80	0.007
824.98	0.006
825.17	0.006
825.35	0.006
825.54	0.006
825.72	0.006
825.91	0.006
826.09	0.006
826.28	0.006
826.46	0.006
826.64	0.006
826.83	0.006
827.01	0.006
827.20	0.006
827.38	0.006
827.57	0.006
827.75	0.006
827.94	0.006
828.12	0.005
828.31	0.005
828.49	0.005
828.67	0.004
828.86	0.005
829.04	0.004
829.23	0.004
829.41	0.004
829.60	0.004
829.78	0.004
829.96	0.004
830.15	0.004
830.33	0.004
830.52	0.004
830.70	0.004
830.88	0.004
831.07	0.004
831.25	0.004
831.44	0.004
831.62	0.004
831.81	0.004
831.99	0.003
832.17	0.003
832.36	0.003
832.54	0.003
832.73	0.003
832.91	0.002
833.09	0.002
833.28	0.002
833.46	0.002
833.65	0.002
833.83	0.002
834.01	0.002
834.20	0.002
834.38	0.002
834.56	0.002
834.75	0.002
834.93	0.002
835.12	0.002
835.30	0.003
835.48	0.002
835.67	0.002
835.85	0.002
836.03	0.002
836.22	0.002
836.40	0.002
836.59	0.002
836.77	0.002
836.95	0.001
837.14	0.001
837.32	0.001
837.50	0.002
837.69	0.002
837.87	0.002
838.05	0.002
838.24	0.002
838.42	0.002
838.60	0.001
838.79	0.002
838.97	0.002
839.15	0.002
839.34	0.002
839.52	0.001
839.70	0.002
839.89	0.002
840.07	0.002
840.25	0.001
840.44	0.001
840.62	0.001
840.80	0.001
840.99	0.001
841.17	0.001
841.35	0.001
841.54	0.001
841.72	0.001
841.90	0.001
842.09	0.001
842.27	0.001
842.45	0.001
842.64	0.001
842.82	0.001
843.00	0.000
843.19	-0.000
843.37	0.000
843.55	-0.000
843.73	-0.000
843.92	-0.000
844.10	-0.000
844.28	-0.000
844.47	-0.000
844.65	0.000
844.83	0.001
845.01	0.001
845.20	0.001
845.38	0.001
845.56	0.001
845.75	0.001
845.93	0.001
846.11	0.001
846.29	0.001
846.48	0.001
846.66	0.001
846.84	0.001
847.02	0.001
847.21	0.001
847.39	0.001
847.57	0.001
847.76	0.001
847.94	0.001
848.12	0.001
848.30	0.001
848.49	0.001
848.67	0.001
848.85	0.001
849.03	0.000
849.22	0.000
849.40	0.000
849.58	0.000
849.76	-0.000
849.95	-0.000
850.13	-0.000
850.31	-0.000
850.49	0.000
850.67	0.000
850.86	0.000
851.04	0.001
851.22	0.001
851.40	0.001
851.59	0.001
851.77	0.001
851.95	0.001
852.13	0.000
852.31	0.000
852.50	0.000
852.68	0.001
852.86	0.000
853.04	-0.000
853.23	-0.000
853.41	-0.000
853.59	-0.001
853.77	-0.001
853.95	-0.001
854.14	-0.001
854.32	-0.000
854.50	-0.000
854.68	-0.000
854.86	-0.000
855.04	-0.000
855.23	-0.000
855.41	-0.000
855.59	-0.000
855.77	-0.000
855.95	-0.000
856.14	-0.001
856.32	-0.001
856.50	-0.001
856.68	-0.001
856.86	-0.002
857.04	-0.002
857.23	-0.002
857.41	-0.001
857.59	-0.002
857.77	-0.002
857.95	-0.002
858.13	-0.002
858.32	-0.001
858.50	-0.001
858.68	-0.001
858.86	-0.001
859.04	-0.001
859.22	-0.001
859.41	-0.001
859.59	-0.001
859.77	-0.002
859.95	-0.002
860.13	-0.002
860.31	-0.002
860.49	-0.002
860.68	-0.002
860.86	-0.001
861.04	-0.002
861.22	-0.002
861.40	-0.002
861.58	-0.002
861.76	-0.001
861.94	-0.001
862.13	-0.001
862.31	-0.001
862.49	-0.001
862.67	-0.001
862.85	-0.001
863.03	-0.001
863.21	-0.001
863.39	-0.001
863.57	-0.001
863.76	-0.001
863.94	-0.001
864.12	-0.001
864.30	-0.001
864.48	-0.002
864.66	-0.002
864.84	-0.002
865.02	-0.002
865.20	-0.002
865.38	-0.002
865.57	-0.001
865.75	-0.001
865.93	-0.001
866.11	-0.001
866.29	-0.001
866.47	-0.001
866.65	-0.001
866.83	-0.001
867.01	-0.001
867.19	-0.000
867.37	-0.000
867.55	-0.001
867.73	-0.001
867.92	-0.001
868.10	-0.001
868.28	-0.001
868.46	-0.001
868.64	-0.000
868.82	-0.000
869.00	-0.000
869.18	-0.001
869.36	-0.000
869.54	-0.000
869.72	0.000
869.90	0.000
870.08	0.000
870.26	0.001
870.44	0.001
870.62	0.001
870.80	0.001
870.98	0.001
871.16	0.002
871.34	0.002
871.53	0.002
871.71	0.002
871.89	0.002
872.07	0.002
872.25	0.003
872.43	0.003
872.61	0.002
872.79	0.003
872.97	0.002
873.15	0.003
873.33	0.003
873.51	0.003
873.69	0.003
873.87	0.003
874.05	0.003
874.23	0.003
874.41	0.003
874.59	0.003
874.77	0.003
874.95	0.003
875.13	0.003
875.31	0.004
875.49	0.003
875.67	0.003
875.85	0.003
876.03	0.003
876.21	0.003
876.39	0.003
876.57	0.003
876.75	0.003
876.93	0.002
877.11	0.002
877.29	0.002
877.47	0.002
877.65	0.002
877.82	0.002
878.00	0.002
878.18	0.002
878.36	0.002
878.54	0.002
878.72	0.002
878.90	0.003
879.08	0.002
879.26	0.003
879.44	0.002
879.62	0.002
879.80	0.002
879.98	0.002
880.16	0.002
880.34	0.002
880.52	0.002
880.70	0.002
880.88	0.002
881.06	0.002
881.24	0.001
881.42	0.001
881.59	0.001
881.77	0.001
881.95	0.001
882.13	0.001
882.31	0.001
882.49	0.001
882.67	0.001
882.85	0.001
883.03	0.001
883.21	0.001
883.39	0.001
883.57	0.001
883.75	0.001
883.92	0.001
884.10	0.001
884.28	0.001
884.46	0.001
884.64	0.001
884.82	0.001
885.00	0.001
885.18	0.001
885.36	0.001
885.54	0.001
885.71	0.001
885.89	0.001
886.07	0.001
886.25	0.001
886.43	0.001
886.61	0.001
886.79	0.001
886.97	0.001
887.15	0.001
887.32	0.001
887.50	0.001
887.68	0.000
887.86	0.000
888.04	0.000
888.22	-0.000
888.40	-0.000
888.57	-0.000
888.75	-0.000
888.93	0.000
889.11	-0.000
889.29	-0.000
889.47	-0.000
889.65	0.000
889.82	0.000
890.00	0.001
890.18	0.001
890.36	0.001
890.54	0.001
890.72	0.001
890.90	0.002
891.07	0.002
891.25	0.002
891.43	0.002
891.61	0.002
891.79	0.002
891.97	0.003
892.14	0.002
892.32	0.002
892.50	0.002
892.68	0.003
892.86	0.003
893.03	0.003
893.21	0.003
893.39	0.003
893.57	0.003
893.75	0.003
893.93	0.003
894.10	0.003
894.28	0.003
894.46	0.004
894.64	0.004
894.82	0.004
894.99	0.004
895.17	0.004
895.35	0.003
895.53	0.003
895.71	0.003
895.88	0.003
896.06	0.003
896.24	0.003
896.42	0.003
896.59	0.002
896.77	0.002
896.95	0.002
897.13	0.002
897.31	0.002
897.48	0.002
897.66	0.002
897.84	0.003
898.02	0.003
898.19	0.003
898.37	0.003
898.55	0.003
898.73	0.003
898.91	0.003
899.08	0.003
899.26	0.003
899.44	0.004
899.62	0.003
899.79	0.003
899.97	0.003
900.15	0.003
900.33	0.003
900.50	0.003
900.68	0.003
900.86	0.004
901.04	0.003
901.21	0.004
901.39	0.004
901.57	0.004
901.74	0.004
901.92	0.004
902.10	0.005
902.28	0.005
902.45	0.005
902.63	0.005
902.81	0.005
902.99	0.005
903.16	0.005
903.34	0.005
903.52	0.005
903.69	0.005
903.87	0.006
904.05	0.006
904.22	0.006
904.40	0.006
904.58	0.007
904.76	0.007
904.93	0.007
905.11	0.007
905.29	0.007
905.46	0.007
905.64	0.007
905.82	0.008
905.99	0.008
906.17	0.008
906.35	0.008
906.53	0.008
906.70	0.008
906.88	0.008
907.06	0.008
907.23	0.009
907.41	0.009
907.59	0.009
907.76	0.009
907.94	0.009
908.12	0.010
908.29	0.010
908.47	0.011
908.65	0.011
908.82	0.012
909.00	0.012
909.18	0.012
909.35	0.013
909.53	0.013
909.71	0.013
909.88	0.014
910.06	0.014
910.23	0.014
910.41	0.014
910.59	0.015
910.76	0.015
910.94	0.015
911.12	0.016
911.29	0.016
911.47	0.017
911.65	0.017
911.82	0.017
912.00	0.017
912.17	0.018
912.35	0.018
912.53	0.018
912.70	0.018
912.88	0.018
913.06	0.018
913.23	0.019
913.41	0.019
913.58	0.019
913.76	0.020
913.94	0.020
914.11	0.020
914.29	0.020
914.46	0.020
914.64	0.021
914.82	0.022
914.99	0.022
915.17	0.022
915.34	0.022
915.52	0.023
915.70	0.023
915.87	0.023
916.05	0.024
916.22	0.024
916.40	0.024
916.57	0.024
916.75	0.024
916.93	0.025
917.10	0.025
917.28	0.025
917.45	0.025
917.63	0.026
917.80	0.026
917.98	0.027
918.16	0.027
918.33	0.027
918.51	0.028
918.68	0.028
918.86	0.028
919.03	0.029
919.21	0.029
919.39	0.029
919.56	0.029
919.74	0.030
919.91	0.030
920.09	0.030
920.26	0.030
920.44	0.030
920.61	0.031
920.79	0.031
920.96	0.031
921.14	0.031
921.31	0.032
921.49	0.032
921.67	0.032
921.84	0.032
922.02	0.033
922.19	0.033
922.37	0.033
922.54	0.034
922.72	0.034
922.89	0.034
923.07	0.034
923.24	0.034
923.42	0.035
923.59	0.035
923.77	0.035
923.94	0.036
924.12	0.036
924.29	0.036
924.47	0.037
924.64	0.037
924.82	0.037
924.99	0.037
925.17	0.038
925.34	0.038
925.52	0.038
925.69	0.038
925.87	0.039
926.04	0.039
926.22	0.038
926.39	0.039
926.57	0.039
926.74	0.039
926.91	0.039
927.09	0.039
927.26	0.038
927.44	0.038
927.61	0.038
927.79	0.038
927.96	0.038
928.14	0.037
928.31	0.037
928.49	0.037
928.66	0.037
928.84	0.036
929.01	0.036
929.18	0.036
929.36	0.035
929.53	0.035
929.71	0.035
929.88	0.035
930.06	0.034
930.23	0.034
930.41	0.033
930.58	0.033
930.75	0.033
930.93	0.032
931.10	0.032
931.28	0.031
931.45	0.030
931.63	0.029
931.80	0.028
931.97	0.027
932.15	0.027
932.32	0.026
932.50	0.024
932.67	0.023
932.84	0.023
933.02	0.022
933.19	0.021
933.37	0.021
933.54	0.020
933.71	0.019
933.89	0.018
934.06	0.017
934.24	0.016
934.41	0.015
934.58	0.014
934.76	0.012
934.93	0.011
935.11	0.010
935.28	0.009
935.45	0.008
935.63	0.006
935.80	0.005
935.98	0.004
936.15	0.002
936.32	0.001
936.50	-0.000
936.67	-0.001
936.84	-0.003
937.02	-0.004
937.19	-0.006
937.36	-0.008
937.54	-0.009
937.71	-0.010
937.89	-0.012
938.06	-0.013
938.23	-0.014
938.41	-0.016
938.58	-0.017
938.75	-0.018
938.93	-0.020
939.10	-0.021
939.27	-0.022
939.45	-0.023
939.62	-0.025
939.79	-0.026
939.97	-0.027
940.14	-0.029
940.31	-0.030
940.49	-0.032
940.66	-0.033
940.83	-0.035
941.01	-0.036
941.18	-0.037
941.35	-0.039
941.53	-0.040
941.70	-0.041
941.87	-0.042
942.05	-0.044
942.22	-0.045
942.39	-0.046
942.57	-0.047
942.74	-0.048
942.91	-0.050
943.08	-0.051
943.26	-0.052
943.43	-0.053
943.60	-0.055
943.78	-0.056
943.95	-0.058
944.12	-0.059
944.29	-0.060
944.47	-0.062
944.64	-0.063
944.81	-0.065
944.99	-0.066
945.16	-0.067
945.33	-0.069
945.50	-0.070
945.68	-0.071
945.85	-0.072
946.02	-0.073
946.20	-0.074
946.37	-0.076
946.54	-0.076
946.71	-0.078
946.89	-0.078
947.06	-0.080
947.23	-0.081
947.40	-0.082
947.58	-0.084
947.75	-0.085
947.92	-0.087
948.09	-0.088
948.27	-0.089
948.44	-0.091
948.61	-0.092
948.78	-0.094
948.96	-0.095
949.13	-0.097
949.30	-0.098
949.47	-0.100
949.65	-0.101
949.82	-0.102
949.99	-0.103
950.16	-0.105
950.33	-0.106
950.51	-0.107
950.68	-0.109
950.85	-0.110
951.02	-0.112
951.20	-0.113
951.37	-0.115
951.54	-0.116
951.71	-0.118
951.88	-0.119
952.06	-0.120
952.23	-0.121
952.40	-0.123
952.57	-0.125
952.74	-0.126
952.92	-0.128
953.09	-0.129
953.26	-0.131
953.43	-0.132
953.60	-0.133
953.77	-0.134
953.95	-0.136
954.12	-0.137
954.29	-0.138
954.46	-0.140
954.63	-0.141
954.81	-0.142
954.98	-0.143
955.15	-0.144
955.32	-0.146
955.49	-0.147
955.66	-0.149
955.84	-0.150
956.01	-0.151
956.18	-0.153
956.35	-0.154
956.52	-0.155
956.69	-0.157
956.87	-0.158
957.04	-0.159
957.21	-0.160
957.38	-0.161
957.55	-0.162
957.72	-0.163
957.89	-0.163
958.07	-0.164
958.24	-0.165
958.41	-0.166
958.58	-0.167
958.75	-0.168
958.92	-0.169
959.09	-0.169
959.26	-0.170
959.44	-0.171
959.61	-0.172
959.78	-0.172
959.95	-0.173
960.12	-0.173
960.29	-0.174
960.46	-0.175
960.63	-0.175
960.81	-0.176
960.98	-0.177
961.15	-0.177
961.32	-0.178
961.49	-0.178
961.66	-0.179
961.83	-0.180
962.00	-0.180
962.17	-0.180
962.34	-0.181
962.52	-0.181
962.69	-0.182
962.86	-0.181
963.03	-0.181
963.20	-0.182
963.37	-0.182
963.54	-0.182
963.71	-0.183
963.88	-0.184
964.05	-0.184
964.22	-0.184
964.39	-0.184
964.56	-0.185
964.74	-0.185
964.91	-0.186
965.08	-0.185
965.25	-0.186
965.42	-0.186
965.59	-0.186
965.76	-0.186
965.93	-0.186
966.10	-0.187
966.27	-0.187
966.44	-0.187
966.61	-0.187
966.78	-0.187
966.95	-0.188
967.12	-0.188
967.29	-0.188
967.46	-0.188
967.63	-0.188
967.80	-0.189
967.97	-0.189
968.14	-0.189
968.32	-0.189
968.49	-0.188
968.66	-0.189
968.83	-0.189
969.00	-0.189
969.17	-0.189
969.34	-0.189
969.51	-0.189
969.68	-0.189
969.85	-0.189
970.02	-0.190
970.19	-0.190
970.36	-0.190
970.53	-0.191
970.70	-0.191
970.87	-0.191
971.04	-0.191
971.21	-0.191
971.38	-0.192
971.55	-0.192
971.72	-0.192
971.89	-0.192
972.06	-0.192
972.23	-0.192
972.40	-0.192
972.57	-0.192
972.74	-0.192
972.91	-0.192
973.07	-0.193
973.24	-0.193
973.41	-0.193
973.58	-0.193
973.75	-0.192
973.92	-0.193
974.09	-0.193
974.26	-0.193
974.43	-0.192
974.60	-0.192
974.77	-0.193
974.94	-0.193
975.11	-0.192
975.28	-0.192
975.45	-0.192
975.62	-0.193
975.79	-0.193
975.96	-0.192
976.13	-0.193
976.30	-0.193
976.47	-0.193
976.64	-0.193
976.80	-0.193
976.97	-0.193
977.14	-0.193
977.31	-0.193
977.48	-0.193
977.65	-0.193
977.82	-0.193
977.99	-0.192
978.16	-0.192
978.33	-0.192
978.50	-0.192
978.67	-0.192
978.83	-0.192
979.00	-0.192
979.17	-0.192
979.34	-0.192
979.51	-0.192
979.68	-0.192
979.85	-0.191
980.02	-0.192
980.19	-0.191
980.36	-0.191
980.52	-0.191
980.69	-0.191
980.86	-0.190
981.03	-0.190
981.20	-0.190
981.37	-0.190
981.54	-0.189
981.71	-0.189
981.88	-0.188
982.04	-0.188
982.21	-0.188
982.38	-0.188
982.55	-0.188
982.72	-0.188
982.89	-0.187
983.06	-0.187
983.22	-0.187
983.39	-0.187
983.56	-0.187
983.73	-0.187
983.90	-0.187
984.07	-0.187
984.24	-0.186
984.40	-0.186
984.57	-0.186
984.74	-0.186
984.91	-0.185
985.08	-0.185
985.25	-0.185
985.41	-0.184
985.58	-0.184
985.75	-0.184
985.92	-0.183
986.09	-0.183
986.26	-0.183
986.42	-0.183
986.59	-0.183
986.76	-0.183
986.93	-0.183
987.10	-0.183
987.27	-0.183
987.43	-0.182
987.60	-0.182
987.77	-0.181
987.94	-0.180
988.11	-0.180
988.27	-0.180
988.44	-0.180
988.61	-0.179
988.78	-0.178
988.95	-0.177
989.11	-0.177
989.28	-0.177
989.45	-0.176
989.62	-0.176
989.79	-0.175
989.95	-0.175
990.12	-0.175
990.29	-0.174
990.46	-0.174
990.62	-0.174
990.79	-0.174
990.96	-0.173
991.13	-0.173
991.30	-0.172
991.46	-0.171
991.63	-0.171
991.80	-0.171
991.97	-0.169
992.13	-0.169
992.30	-0.169
992.47	-0.168
992.64	-0.168
992.80	-0.168
992.97	-0.168
993.14	-0.167
993.31	-0.167
993.47	-0.167
993.64	-0.167
993.81	-0.167
993.98	-0.166
994.14	-0.166
994.31	-0.166
994.48	-0.165
994.64	-0.164
994.81	-0.164
994.98	-0.164
995.15	-0.163
995.31	-0.162
995.48	-0.162
995.65	-0.161
995.82	-0.161
995.98	-0.161
996.15	-0.160
996.32	-0.160
996.48	-0.160
996.65	-0.159
996.82	-0.158
996.99	-0.158
997.15	-0.158
997.32	-0.157
997.49	-0.157
997.65	-0.156
997.82	-0.156
997.99	-0.155
998.15	-0.155
998.32	-0.154
998.49	-0.155
998.65	-0.154
998.82	-0.154
998.99	-0.153
999.15	-0.152
999.32	-0.152
999.49	-0.152
999.65	-0.150
999.82	-0.150
999.99	-0.149
1000.15	-0.149
1000.32	-0.148
1000.49	-0.148
1000.65	-0.148
1000.82	-0.147
1000.99	-0.147
1001.15	-0.146
1001.32	-0.145
1001.49	-0.146
1001.65	-0.146
1001.82	-0.145
1001.99	-0.144
1002.15	-0.144
1002.32	-0.143
1002.49	-0.142
1002.65	-0.142
1002.82	-0.141
1002.99	-0.141
1003.15	-0.141
1003.32	-0.140
1003.48	-0.139
1003.65	-0.139
1003.82	-0.138
1003.98	-0.137
1004.15	-0.137
1004.32	-0.136
1004.48	-0.136
1004.65	-0.136
1004.81	-0.135
1004.98	-0.135
1005.15	-0.135
1005.31	-0.134
1005.48	-0.134
1005.64	-0.133
1005.81	-0.133
1005.98	-0.133
1006.14	-0.133
1006.31	-0.132
1006.47	-0.131
1006.64	-0.131
1006.81	-0.130
1006.97	-0.129
1007.14	-0.129
1007.30	-0.128
1007.47	-0.128
1007.63	-0.127
1007.80	-0.128
1007.97	-0.127
1008.13	-0.127
1008.30	-0.126
1008.46	-0.125
1008.63	-0.125
1008.79	-0.125
1008.96	-0.124
1009.13	-0.123
1009.29	-0.123
1009.46	-0.122
1009.62	-0.121
1009.79	-0.120
1009.95	-0.119
1010.12	-0.119
1010.28	-0.118
1010.45	-0.117
1010.62	-0.117
1010.78	-0.116
1010.95	-0.115
1011.11	-0.114
1011.28	-0.115
1011.44	-0.114
1011.61	-0.113
1011.77	-0.112
1011.94	-0.112
1012.10	-0.112
1012.27	-0.112
1012.43	-0.111
1012.60	-0.110
1012.76	-0.111
1012.93	-0.111
1013.10	-0.110
1013.26	-0.110
1013.43	-0.109
1013.59	-0.109
1013.76	-0.108
1013.92	-0.107
1014.09	-0.106
1014.25	-0.105
1014.42	-0.105
1014.58	-0.103
1014.75	-0.103
1014.91	-0.102
1015.08	-0.102
1015.24	-0.101
1015.41	-0.100
1015.57	-0.100
1015.73	-0.100
1015.90	-0.099
1016.06	-0.099
1016.23	-0.099
1016.39	-0.099
1016.56	-0.099
1016.72	-0.098
1016.89	-0.098
1017.05	-0.098
1017.22	-0.097
1017.38	-0.097
1017.55	-0.095
1017.71	-0.095
1017.88	-0.095
1018.04	-0.095
1018.21	-0.094
1018.37	-0.093
1018.53	-0.092
1018.70	-0.091
1018.86	-0.090
1019.03	-0.091
1019.19	-0.091
1019.36	-0.091
1019.52	-0.091
1019.69	-0.091
1019.85	-0.090
1020.01	-0.089
1020.18	-0.089
1020.34	-0.089
1020.51	-0.089
1020.67	-0.090
1020.84	-0.089
1021.00	-0.088
1021.16	-0.086
1021.33	-0.086
1021.49	-0.085
1021.66	-0.085
1021.82	-0.085
1021.98	-0.084
1022.15	-0.083
1022.31	-0.083
1022.48	-0.083
1022.64	-0.082
1022.80	-0.082
1022.97	-0.082
1023.13	-0.082
1023.30	-0.081
1023.46	-0.081
1023.62	-0.080
1023.79	-0.082
1023.95	-0.081
1024.12	-0.080
1024.28	-0.079
1024.44	-0.078
1024.61	-0.078
1024.77	-0.078
1024.93	-0.077
1025.10	-0.077
1025.26	-0.076
1025.43	-0.076
1025.59	-0.075
1025.75	-0.074
1025.92	-0.074
1026.08	-0.074
1026.24	-0.073
1026.41	-0.072
1026.57	-0.071
1026.73	-0.071
1026.90	-0.071
1027.06	-0.070
1027.23	-0.069
1027.39	-0.069
1027.55	-0.069
1027.72	-0.069
1027.88	-0.068
1028.04	-0.069
1028.21	-0.068
1028.37	-0.068
1028.53	-0.067
1028.70	-0.065
1028.86	-0.066
1029.02	-0.065
1029.19	-0.065
1029.35	-0.065
1029.51	-0.063
1029.67	-0.063
1029.84	-0.061
1030.00	-0.062
1030.16	-0.061
1030.33	-0.060
1030.49	-0.061
1030.65	-0.060
1030.82	-0.060
1030.98	-0.059
1031.14	-0.059
1031.31	-0.059
1031.47	-0.059
1031.63	-0.059
1031.79	-0.058
1031.96	-0.059
1032.12	-0.058
1032.28	-0.058
1032.45	-0.057
1032.61	-0.057
1032.77	-0.056
1032.93	-0.055
1033.10	-0.053
1033.26	-0.052
1033.42	-0.051
1033.58	-0.050
1033.75	-0.048
1033.91	-0.049
1034.07	-0.048
1034.24	-0.047
1034.40	-0.047
1034.56	-0.047
1034.72	-0.046
1034.89	-0.048
1035.05	-0.048
1035.21	-0.048
1035.37	-0.048
1035.54	-0.050
1035.70	-0.048
1035.86	-0.049
1036.02	-0.048
1036.19	-0.048
1036.35	-0.047
1036.51	-0.047
1036.67	-0.046
1036.83	-0.046
1037.00	-0.045
1037.16	-0.045
1037.32	-0.044
1037.48	-0.044
1037.65	-0.043
1037.81	-0.043
1037.97	-0.042
1038.13	-0.042
1038.29	-0.041
1038.46	-0.040
1038.62	-0.041
1038.78	-0.042
1038.94	-0.041
1039.10	-0.041
1039.27	-0.042
1039.43	-0.042
1039.59	-0.041
1039.75	-0.042
1039.91	-0.042
1040.08	-0.042
1040.24	-0.042
1040.40	-0.042
1040.56	-0.040
1040.72	-0.039
1040.89	-0.038
1041.05	-0.037
1041.21	-0.036
1041.37	-0.037
1041.53	-0.035
1041.69	-0.034
1041.86	-0.034
1042.02	-0.033
1042.18	-0.033
1042.34	-0.032
1042.50	-0.033
1042.66	-0.033
1042.83	-0.032
1042.99	-0.032
1043.15	-0.032
1043.31	-0.033
1043.47	-0.034
1043.63	-0.034
1043.79	-0.035
1043.96	-0.033
1044.12	-0.034
1044.28	-0.034
1044.44	-0.035
1044.60	-0.035
1044.76	-0.036
1044.92	-0.036
1045.09	-0.036
1045.25	-0.034
1045.41	-0.034
1045.57	-0.033
1045.73	-0.033
1045.89	-0.034
1046.05	-0.033
1046.21	-0.031
1046.38	-0.019
1046.54	-0.027
1046.70	-0.041
1046.86	-0.030
>>>>>End Processed Spectral Data<<<<<
