SpectraSuite Data File
++++++++++++++++++++++++++++++++++++
Date: Mon May 06 13:17:07 CDT 2013
User: Students
Dark Spectrum Present: Yes
Reference Spectrum Present: Yes
Number of Sampled Component Spectra: 1
Spectrometers: USB4H00887
Integration Time (usec): 50000 (USB4H00887)
Spectra Averaged: 10 (USB4H00887)
Boxcar Smoothing: 5 (USB4H00887)
Correct for Electrical Dark: No (USB4H00887)
Strobe/Lamp Enabled: No (USB4H00887)
Correct for Detector Non-linearity: No (USB4H00887)
Correct for Stray Light: No (USB4H00887)
Number of Pixels in Processed Spectrum: 3648
>>>>>Begin Processed Spectral Data<<<<<
345.83	-0.129
346.05	-0.129
346.26	-0.129
346.48	-0.000
346.70	-0.000
346.92	-0.447
347.14	-0.271
347.35	-0.283
347.57	-0.282
347.79	-0.180
348.01	-0.246
348.23	-0.303
348.44	-0.405
348.66	-0.208
348.88	-0.094
349.10	-0.088
349.32	-0.030
349.53	-0.051
349.75	-0.079
349.97	-0.077
350.19	-0.115
350.41	-0.121
350.62	-0.112
350.84	-0.098
351.06	-0.109
351.28	-0.110
351.50	-0.094
351.71	-0.117
351.93	-0.133
352.15	-0.094
352.37	-0.128
352.58	-0.095
352.80	-0.083
353.02	-0.062
353.24	-0.054
353.46	-0.072
353.67	-0.151
353.89	-0.168
354.11	-0.117
354.33	-0.131
354.54	-0.149
354.76	-0.111
354.98	-0.073
355.20	-0.117
355.41	-0.101
355.63	-0.080
355.85	-0.068
356.07	-0.045
356.28	-0.044
356.50	-0.061
356.72	-0.049
356.94	-0.033
357.15	-0.031
357.37	-0.076
357.59	-0.065
357.81	-0.087
358.02	-0.079
358.24	-0.040
358.46	-0.029
358.68	-0.018
358.89	-0.014
359.11	-0.023
359.33	-0.048
359.55	-0.048
359.76	-0.021
359.98	0.010
360.20	0.035
360.42	0.026
360.63	-0.007
360.85	0.013
361.07	0.016
361.29	0.016
361.50	0.001
361.72	-0.018
361.94	-0.027
362.15	-0.035
362.37	-0.043
362.59	-0.044
362.81	-0.085
363.02	-0.072
363.24	-0.102
363.46	-0.100
363.68	-0.130
363.89	-0.100
364.11	-0.080
364.33	-0.100
364.54	-0.080
364.76	-0.075
364.98	-0.061
365.20	-0.040
365.41	-0.012
365.63	0.023
365.85	0.024
366.06	0.044
366.28	0.048
366.50	0.077
366.71	0.166
366.93	0.138
367.15	0.138
367.37	0.136
367.58	0.154
367.80	0.116
368.02	0.125
368.23	0.139
368.45	0.138
368.67	0.142
368.88	0.107
369.10	0.066
369.32	0.040
369.53	0.042
369.75	0.035
369.97	0.042
370.19	0.056
370.40	0.055
370.62	0.033
370.84	0.060
371.05	0.083
371.27	0.143
371.49	0.169
371.70	0.207
371.92	0.235
372.14	0.227
372.35	0.229
372.57	0.224
372.79	0.182
373.00	0.163
373.22	0.125
373.44	0.072
373.65	0.061
373.87	0.055
374.09	0.030
374.30	-0.000
374.52	0.008
374.74	0.019
374.95	0.007
375.17	0.028
375.39	0.054
375.60	0.065
375.82	0.076
376.04	0.076
376.25	0.079
376.47	0.099
376.68	0.097
376.90	0.098
377.12	0.106
377.33	0.127
377.55	0.155
377.77	0.169
377.98	0.211
378.20	0.265
378.42	0.282
378.63	0.312
378.85	0.306
379.07	0.331
379.28	0.326
379.50	0.292
379.71	0.320
379.93	0.327
380.15	0.302
380.36	0.282
380.58	0.248
380.80	0.229
381.01	0.212
381.23	0.228
381.44	0.214
381.66	0.215
381.88	0.199
382.09	0.199
382.31	0.174
382.53	0.185
382.74	0.186
382.96	0.185
383.17	0.160
383.39	0.147
383.61	0.141
383.82	0.151
384.04	0.143
384.25	0.176
384.47	0.154
384.69	0.169
384.90	0.146
385.12	0.137
385.33	0.136
385.55	0.175
385.77	0.166
385.98	0.140
386.20	0.142
386.41	0.177
386.63	0.170
386.85	0.171
387.06	0.169
387.28	0.189
387.49	0.223
387.71	0.267
387.93	0.271
388.14	0.279
388.36	0.325
388.57	0.350
388.79	0.317
389.01	0.342
389.22	0.371
389.44	0.422
389.65	0.424
389.87	0.432
390.08	0.423
390.30	0.410
390.52	0.438
390.73	0.412
390.95	0.392
391.16	0.404
391.38	0.380
391.59	0.367
391.81	0.338
392.03	0.355
392.24	0.340
392.46	0.319
392.67	0.309
392.89	0.275
393.10	0.310
393.32	0.330
393.53	0.323
393.75	0.320
393.97	0.332
394.18	0.353
394.40	0.340
394.61	0.334
394.83	0.346
395.04	0.368
395.26	0.389
395.47	0.387
395.69	0.389
395.91	0.416
396.12	0.441
396.34	0.430
396.55	0.418
396.77	0.436
396.98	0.430
397.20	0.448
397.41	0.441
397.63	0.446
397.84	0.417
398.06	0.389
398.27	0.359
398.49	0.351
398.71	0.358
398.92	0.358
399.14	0.342
399.35	0.335
399.57	0.323
399.78	0.349
400.00	0.328
400.21	0.321
400.43	0.336
400.64	0.350
400.86	0.360
401.07	0.363
401.29	0.378
401.50	0.379
401.72	0.391
401.93	0.390
402.15	0.370
402.36	0.394
402.58	0.411
402.79	0.406
403.01	0.426
403.22	0.421
403.44	0.462
403.65	0.435
403.87	0.428
404.08	0.439
404.30	0.446
404.51	0.450
404.73	0.460
404.94	0.470
405.16	0.492
405.37	0.486
405.59	0.484
405.80	0.456
406.02	0.464
406.23	0.481
406.45	0.482
406.66	0.462
406.88	0.478
407.09	0.468
407.31	0.488
407.52	0.474
407.74	0.468
407.95	0.491
408.17	0.497
408.38	0.518
408.60	0.517
408.81	0.499
409.03	0.515
409.24	0.511
409.45	0.505
409.67	0.485
409.88	0.505
410.10	0.513
410.31	0.504
410.53	0.504
410.74	0.509
410.96	0.503
411.17	0.523
411.39	0.512
411.60	0.521
411.82	0.520
412.03	0.525
412.24	0.520
412.46	0.516
412.67	0.521
412.89	0.533
413.10	0.535
413.32	0.561
413.53	0.565
413.75	0.589
413.96	0.575
414.17	0.599
414.39	0.603
414.60	0.594
414.82	0.614
415.03	0.617
415.25	0.614
415.46	0.606
415.68	0.594
415.89	0.605
416.10	0.637
416.32	0.632
416.53	0.630
416.75	0.621
416.96	0.616
417.18	0.630
417.39	0.652
417.60	0.636
417.82	0.643
418.03	0.638
418.25	0.635
418.46	0.589
418.67	0.596
418.89	0.592
419.10	0.606
419.32	0.615
419.53	0.590
419.75	0.583
419.96	0.589
420.17	0.568
420.39	0.571
420.60	0.574
420.82	0.596
421.03	0.613
421.24	0.609
421.46	0.600
421.67	0.608
421.89	0.610
422.10	0.607
422.31	0.608
422.53	0.612
422.74	0.625
422.96	0.622
423.17	0.616
423.38	0.603
423.60	0.611
423.81	0.611
424.03	0.620
424.24	0.621
424.45	0.615
424.67	0.606
424.88	0.611
425.09	0.595
425.31	0.591
425.52	0.593
425.74	0.603
425.95	0.616
426.16	0.633
426.38	0.636
426.59	0.664
426.80	0.678
427.02	0.692
427.23	0.714
427.45	0.741
427.66	0.740
427.87	0.727
428.09	0.718
428.30	0.703
428.51	0.697
428.73	0.681
428.94	0.659
429.15	0.645
429.37	0.648
429.58	0.648
429.79	0.646
430.01	0.663
430.22	0.681
430.44	0.680
430.65	0.681
430.86	0.682
431.08	0.683
431.29	0.691
431.50	0.690
431.72	0.700
431.93	0.695
432.14	0.698
432.36	0.689
432.57	0.685
432.78	0.699
433.00	0.695
433.21	0.696
433.42	0.689
433.64	0.701
433.85	0.723
434.06	0.724
434.28	0.718
434.49	0.713
434.70	0.710
434.92	0.704
435.13	0.706
435.34	0.719
435.56	0.710
435.77	0.719
435.98	0.710
436.20	0.712
436.41	0.705
436.62	0.701
436.83	0.708
437.05	0.722
437.26	0.733
437.47	0.733
437.69	0.722
437.90	0.741
438.11	0.741
438.33	0.731
438.54	0.723
438.75	0.721
438.97	0.731
439.18	0.729
439.39	0.723
439.60	0.716
439.82	0.711
440.03	0.717
440.24	0.698
440.46	0.699
440.67	0.692
440.88	0.692
441.10	0.702
441.31	0.701
441.52	0.696
441.73	0.688
441.95	0.687
442.16	0.675
442.37	0.674
442.58	0.684
442.80	0.680
443.01	0.692
443.22	0.684
443.44	0.670
443.65	0.669
443.86	0.675
444.07	0.683
444.29	0.682
444.50	0.688
444.71	0.681
444.92	0.679
445.14	0.686
445.35	0.687
445.56	0.692
445.78	0.695
445.99	0.701
446.20	0.694
446.41	0.684
446.63	0.686
446.84	0.678
447.05	0.681
447.26	0.679
447.48	0.677
447.69	0.677
447.90	0.669
448.11	0.672
448.33	0.663
448.54	0.665
448.75	0.667
448.96	0.667
449.18	0.676
449.39	0.668
449.60	0.662
449.81	0.656
450.03	0.656
450.24	0.650
450.45	0.651
450.66	0.653
450.87	0.651
451.09	0.655
451.30	0.651
451.51	0.646
451.72	0.650
451.94	0.659
452.15	0.664
452.36	0.658
452.57	0.664
452.78	0.654
453.00	0.645
453.21	0.646
453.42	0.635
453.63	0.635
453.85	0.643
454.06	0.645
454.27	0.645
454.48	0.646
454.69	0.654
454.91	0.663
455.12	0.671
455.33	0.674
455.54	0.676
455.75	0.685
455.97	0.680
456.18	0.676
456.39	0.667
456.60	0.665
456.81	0.660
457.03	0.658
457.24	0.651
457.45	0.649
457.66	0.652
457.87	0.642
458.09	0.643
458.30	0.646
458.51	0.650
458.72	0.656
458.93	0.650
459.15	0.653
459.36	0.647
459.57	0.648
459.78	0.643
459.99	0.648
460.20	0.653
460.42	0.645
460.63	0.650
460.84	0.646
461.05	0.641
461.26	0.645
461.47	0.646
461.69	0.648
461.90	0.646
462.11	0.653
462.32	0.647
462.53	0.644
462.74	0.646
462.96	0.638
463.17	0.631
463.38	0.637
463.59	0.632
463.80	0.631
464.01	0.631
464.23	0.629
464.44	0.625
464.65	0.628
464.86	0.628
465.07	0.628
465.28	0.632
465.49	0.640
465.71	0.641
465.92	0.644
466.13	0.639
466.34	0.637
466.55	0.637
466.76	0.635
466.97	0.631
467.19	0.633
467.40	0.629
467.61	0.630
467.82	0.625
468.03	0.621
468.24	0.619
468.45	0.619
468.66	0.620
468.88	0.617
469.09	0.619
469.30	0.618
469.51	0.617
469.72	0.617
469.93	0.615
470.14	0.614
470.35	0.613
470.57	0.610
470.78	0.612
470.99	0.611
471.20	0.609
471.41	0.604
471.62	0.602
471.83	0.599
472.04	0.600
472.25	0.600
472.47	0.599
472.68	0.598
472.89	0.600
473.10	0.598
473.31	0.597
473.52	0.602
473.73	0.605
473.94	0.607
474.15	0.608
474.36	0.609
474.57	0.608
474.79	0.609
475.00	0.610
475.21	0.609
475.42	0.610
475.63	0.609
475.84	0.604
476.05	0.600
476.26	0.601
476.47	0.600
476.68	0.601
476.89	0.599
477.10	0.599
477.32	0.599
477.53	0.597
477.74	0.595
477.95	0.596
478.16	0.596
478.37	0.597
478.58	0.597
478.79	0.596
479.00	0.593
479.21	0.592
479.42	0.593
479.63	0.591
479.84	0.593
480.05	0.594
480.26	0.593
480.47	0.595
480.69	0.592
480.90	0.591
481.11	0.592
481.32	0.590
481.53	0.590
481.74	0.588
481.95	0.587
482.16	0.584
482.37	0.583
482.58	0.583
482.79	0.581
483.00	0.582
483.21	0.582
483.42	0.579
483.63	0.579
483.84	0.578
484.05	0.579
484.26	0.578
484.47	0.579
484.68	0.579
484.89	0.577
485.10	0.578
485.31	0.578
485.52	0.579
485.73	0.579
485.94	0.579
486.15	0.579
486.37	0.577
486.58	0.579
486.79	0.579
487.00	0.577
487.21	0.576
487.42	0.575
487.63	0.573
487.84	0.572
488.05	0.574
488.26	0.572
488.47	0.572
488.68	0.571
488.89	0.569
489.10	0.568
489.31	0.568
489.52	0.569
489.73	0.568
489.94	0.569
490.15	0.570
490.36	0.568
490.57	0.569
490.78	0.569
490.99	0.567
491.20	0.568
491.41	0.568
491.62	0.570
491.83	0.569
492.04	0.567
492.25	0.566
492.45	0.563
492.66	0.563
492.87	0.562
493.08	0.562
493.29	0.562
493.50	0.561
493.71	0.560
493.92	0.559
494.13	0.559
494.34	0.561
494.55	0.561
494.76	0.561
494.97	0.562
495.18	0.563
495.39	0.561
495.60	0.560
495.81	0.559
496.02	0.557
496.23	0.557
496.44	0.556
496.65	0.555
496.86	0.554
497.07	0.556
497.28	0.553
497.49	0.552
497.70	0.553
497.91	0.552
498.12	0.553
498.32	0.552
498.53	0.551
498.74	0.551
498.95	0.550
499.16	0.550
499.37	0.548
499.58	0.549
499.79	0.548
500.00	0.548
500.21	0.549
500.42	0.549
500.63	0.550
500.84	0.549
501.05	0.549
501.26	0.548
501.46	0.546
501.67	0.547
501.88	0.544
502.09	0.543
502.30	0.542
502.51	0.540
502.72	0.539
502.93	0.539
503.14	0.538
503.35	0.537
503.56	0.538
503.77	0.538
503.97	0.537
504.18	0.537
504.39	0.537
504.60	0.536
504.81	0.536
505.02	0.535
505.23	0.534
505.44	0.533
505.65	0.535
505.86	0.533
506.07	0.532
506.27	0.531
506.48	0.531
506.69	0.531
506.90	0.532
507.11	0.532
507.32	0.531
507.53	0.530
507.74	0.530
507.95	0.526
508.15	0.526
508.36	0.525
508.57	0.525
508.78	0.523
508.99	0.523
509.20	0.521
509.41	0.519
509.62	0.519
509.82	0.519
510.03	0.518
510.24	0.518
510.45	0.516
510.66	0.516
510.87	0.515
511.08	0.516
511.29	0.515
511.49	0.514
511.70	0.514
511.91	0.512
512.12	0.510
512.33	0.510
512.54	0.511
512.75	0.511
512.95	0.510
513.16	0.508
513.37	0.507
513.58	0.505
513.79	0.504
514.00	0.503
514.20	0.502
514.41	0.502
514.62	0.501
514.83	0.499
515.04	0.499
515.25	0.498
515.46	0.498
515.66	0.497
515.87	0.497
516.08	0.497
516.29	0.497
516.50	0.497
516.71	0.496
516.91	0.495
517.12	0.494
517.33	0.493
517.54	0.493
517.75	0.491
517.95	0.490
518.16	0.489
518.37	0.487
518.58	0.485
518.79	0.483
519.00	0.483
519.20	0.481
519.41	0.480
519.62	0.478
519.83	0.476
520.04	0.475
520.24	0.473
520.45	0.472
520.66	0.470
520.87	0.469
521.08	0.468
521.28	0.466
521.49	0.465
521.70	0.464
521.91	0.463
522.12	0.462
522.32	0.463
522.53	0.461
522.74	0.460
522.95	0.459
523.16	0.459
523.36	0.456
523.57	0.455
523.78	0.454
523.99	0.453
524.20	0.452
524.40	0.451
524.61	0.449
524.82	0.448
525.03	0.447
525.23	0.446
525.44	0.445
525.65	0.444
525.86	0.443
526.06	0.443
526.27	0.442
526.48	0.441
526.69	0.440
526.90	0.439
527.10	0.439
527.31	0.438
527.52	0.437
527.73	0.435
527.93	0.434
528.14	0.433
528.35	0.431
528.56	0.430
528.76	0.428
528.97	0.426
529.18	0.425
529.39	0.423
529.59	0.421
529.80	0.419
530.01	0.418
530.22	0.416
530.42	0.414
530.63	0.414
530.84	0.412
531.05	0.411
531.25	0.411
531.46	0.409
531.67	0.409
531.88	0.408
532.08	0.406
532.29	0.406
532.50	0.405
532.70	0.405
532.91	0.404
533.12	0.403
533.33	0.401
533.53	0.400
533.74	0.399
533.95	0.397
534.15	0.396
534.36	0.395
534.57	0.394
534.78	0.392
534.98	0.391
535.19	0.390
535.40	0.389
535.60	0.388
535.81	0.386
536.02	0.385
536.23	0.384
536.43	0.384
536.64	0.383
536.85	0.381
537.05	0.379
537.26	0.378
537.47	0.377
537.67	0.376
537.88	0.374
538.09	0.373
538.30	0.373
538.50	0.370
538.71	0.367
538.92	0.366
539.12	0.365
539.33	0.364
539.54	0.363
539.74	0.362
539.95	0.360
540.16	0.359
540.36	0.358
540.57	0.356
540.78	0.355
540.98	0.354
541.19	0.352
541.40	0.350
541.60	0.349
541.81	0.348
542.02	0.346
542.22	0.345
542.43	0.343
542.64	0.342
542.84	0.340
543.05	0.339
543.26	0.337
543.46	0.335
543.67	0.334
543.88	0.334
544.08	0.332
544.29	0.330
544.50	0.328
544.70	0.327
544.91	0.325
545.12	0.324
545.32	0.323
545.53	0.321
545.74	0.320
545.94	0.318
546.15	0.316
546.35	0.315
546.56	0.313
546.77	0.312
546.97	0.310
547.18	0.309
547.39	0.307
547.59	0.306
547.80	0.304
548.01	0.303
548.21	0.301
548.42	0.299
548.62	0.297
548.83	0.296
549.04	0.294
549.24	0.292
549.45	0.290
549.65	0.289
549.86	0.287
550.07	0.285
550.27	0.283
550.48	0.282
550.69	0.280
550.89	0.278
551.10	0.277
551.30	0.275
551.51	0.273
551.72	0.272
551.92	0.270
552.13	0.269
552.33	0.267
552.54	0.265
552.75	0.263
552.95	0.261
553.16	0.260
553.36	0.258
553.57	0.256
553.78	0.255
553.98	0.253
554.19	0.251
554.39	0.249
554.60	0.247
554.80	0.245
555.01	0.244
555.22	0.242
555.42	0.241
555.63	0.239
555.83	0.237
556.04	0.235
556.25	0.233
556.45	0.232
556.66	0.230
556.86	0.228
557.07	0.226
557.27	0.225
557.48	0.223
557.68	0.221
557.89	0.219
558.10	0.218
558.30	0.216
558.51	0.214
558.71	0.212
558.92	0.211
559.12	0.209
559.33	0.207
559.54	0.205
559.74	0.204
559.95	0.202
560.15	0.201
560.36	0.199
560.56	0.197
560.77	0.196
560.97	0.194
561.18	0.192
561.38	0.191
561.59	0.190
561.79	0.188
562.00	0.186
562.21	0.184
562.41	0.182
562.62	0.181
562.82	0.179
563.03	0.177
563.23	0.176
563.44	0.173
563.64	0.171
563.85	0.170
564.05	0.169
564.26	0.167
564.46	0.166
564.67	0.165
564.87	0.163
565.08	0.161
565.28	0.160
565.49	0.159
565.69	0.158
565.90	0.156
566.10	0.154
566.31	0.152
566.51	0.150
566.72	0.149
566.92	0.148
567.13	0.146
567.33	0.144
567.54	0.142
567.74	0.141
567.95	0.140
568.15	0.139
568.36	0.137
568.56	0.136
568.77	0.134
568.97	0.133
569.18	0.131
569.38	0.129
569.59	0.128
569.79	0.127
570.00	0.125
570.20	0.123
570.41	0.122
570.61	0.121
570.82	0.120
571.02	0.119
571.23	0.117
571.43	0.115
571.64	0.114
571.84	0.113
572.05	0.112
572.25	0.111
572.45	0.110
572.66	0.109
572.86	0.107
573.07	0.106
573.27	0.105
573.48	0.104
573.68	0.103
573.89	0.102
574.09	0.100
574.30	0.099
574.50	0.098
574.70	0.096
574.91	0.095
575.11	0.094
575.32	0.093
575.52	0.092
575.73	0.090
575.93	0.089
576.14	0.088
576.34	0.087
576.54	0.086
576.75	0.085
576.95	0.084
577.16	0.083
577.36	0.082
577.57	0.081
577.77	0.080
577.97	0.079
578.18	0.078
578.38	0.077
578.59	0.077
578.79	0.076
579.00	0.074
579.20	0.073
579.40	0.072
579.61	0.071
579.81	0.070
580.02	0.069
580.22	0.069
580.42	0.068
580.63	0.067
580.83	0.066
581.04	0.065
581.24	0.065
581.45	0.064
581.65	0.063
581.85	0.062
582.06	0.061
582.26	0.060
582.47	0.060
582.67	0.059
582.87	0.058
583.08	0.058
583.28	0.057
583.48	0.056
583.69	0.056
583.89	0.055
584.10	0.054
584.30	0.054
584.50	0.053
584.71	0.052
584.91	0.051
585.12	0.051
585.32	0.050
585.52	0.049
585.73	0.049
585.93	0.048
586.13	0.047
586.34	0.046
586.54	0.046
586.75	0.046
586.95	0.045
587.15	0.045
587.36	0.044
587.56	0.043
587.76	0.043
587.97	0.042
588.17	0.042
588.37	0.041
588.58	0.041
588.78	0.041
588.98	0.040
589.19	0.040
589.39	0.039
589.60	0.038
589.80	0.038
590.00	0.038
590.21	0.037
590.41	0.037
590.61	0.036
590.82	0.036
591.02	0.035
591.22	0.034
591.43	0.034
591.63	0.034
591.83	0.033
592.04	0.032
592.24	0.032
592.44	0.031
592.65	0.031
592.85	0.031
593.05	0.031
593.26	0.030
593.46	0.030
593.66	0.030
593.86	0.029
594.07	0.029
594.27	0.029
594.47	0.029
594.68	0.029
594.88	0.029
595.08	0.028
595.29	0.028
595.49	0.028
595.69	0.028
595.90	0.028
596.10	0.028
596.30	0.027
596.50	0.027
596.71	0.027
596.91	0.027
597.11	0.026
597.32	0.026
597.52	0.026
597.72	0.025
597.93	0.025
598.13	0.025
598.33	0.025
598.53	0.025
598.74	0.024
598.94	0.024
599.14	0.023
599.35	0.023
599.55	0.023
599.75	0.023
599.95	0.023
600.16	0.022
600.36	0.022
600.56	0.022
600.76	0.022
600.97	0.023
601.17	0.023
601.37	0.022
601.58	0.022
601.78	0.022
601.98	0.021
602.18	0.021
602.39	0.022
602.59	0.021
602.79	0.021
602.99	0.021
603.20	0.021
603.40	0.020
603.60	0.020
603.80	0.020
604.01	0.020
604.21	0.019
604.41	0.019
604.61	0.019
604.82	0.019
605.02	0.019
605.22	0.018
605.42	0.019
605.62	0.019
605.83	0.019
606.03	0.019
606.23	0.019
606.43	0.019
606.64	0.019
606.84	0.019
607.04	0.019
607.24	0.019
607.45	0.019
607.65	0.018
607.85	0.018
608.05	0.018
608.25	0.018
608.46	0.018
608.66	0.019
608.86	0.018
609.06	0.018
609.26	0.018
609.47	0.018
609.67	0.019
609.87	0.019
610.07	0.018
610.28	0.018
610.48	0.019
610.68	0.019
610.88	0.019
611.08	0.019
611.29	0.019
611.49	0.019
611.69	0.018
611.89	0.018
612.09	0.018
612.29	0.019
612.50	0.018
612.70	0.018
612.90	0.018
613.10	0.018
613.30	0.017
613.51	0.018
613.71	0.017
613.91	0.017
614.11	0.017
614.31	0.016
614.51	0.016
614.72	0.016
614.92	0.016
615.12	0.016
615.32	0.016
615.52	0.016
615.72	0.016
615.93	0.016
616.13	0.016
616.33	0.016
616.53	0.017
616.73	0.017
616.93	0.017
617.14	0.016
617.34	0.016
617.54	0.017
617.74	0.016
617.94	0.016
618.14	0.017
618.34	0.017
618.55	0.017
618.75	0.016
618.95	0.017
619.15	0.017
619.35	0.017
619.55	0.017
619.75	0.017
619.96	0.017
620.16	0.017
620.36	0.017
620.56	0.017
620.76	0.017
620.96	0.017
621.16	0.017
621.36	0.017
621.57	0.017
621.77	0.017
621.97	0.017
622.17	0.017
622.37	0.017
622.57	0.017
622.77	0.017
622.97	0.017
623.18	0.016
623.38	0.016
623.58	0.016
623.78	0.016
623.98	0.016
624.18	0.016
624.38	0.015
624.58	0.016
624.78	0.016
624.98	0.016
625.19	0.015
625.39	0.015
625.59	0.016
625.79	0.016
625.99	0.016
626.19	0.016
626.39	0.016
626.59	0.016
626.79	0.016
626.99	0.016
627.19	0.016
627.40	0.016
627.60	0.016
627.80	0.016
628.00	0.016
628.20	0.017
628.40	0.017
628.60	0.016
628.80	0.016
629.00	0.016
629.20	0.016
629.40	0.016
629.60	0.016
629.80	0.016
630.00	0.016
630.20	0.016
630.41	0.016
630.61	0.016
630.81	0.016
631.01	0.015
631.21	0.015
631.41	0.016
631.61	0.016
631.81	0.016
632.01	0.016
632.21	0.016
632.41	0.015
632.61	0.016
632.81	0.015
633.01	0.015
633.21	0.016
633.41	0.016
633.61	0.016
633.81	0.015
634.01	0.015
634.21	0.015
634.41	0.015
634.61	0.015
634.81	0.015
635.01	0.015
635.22	0.015
635.42	0.014
635.62	0.014
635.82	0.015
636.02	0.015
636.22	0.015
636.42	0.015
636.62	0.015
636.82	0.014
637.02	0.015
637.22	0.015
637.42	0.015
637.62	0.015
637.82	0.015
638.02	0.015
638.22	0.015
638.42	0.015
638.62	0.016
638.82	0.015
639.02	0.015
639.22	0.015
639.42	0.015
639.62	0.015
639.82	0.015
640.02	0.016
640.22	0.015
640.42	0.015
640.62	0.015
640.82	0.015
641.02	0.015
641.22	0.015
641.42	0.015
641.61	0.015
641.81	0.015
642.01	0.015
642.21	0.015
642.41	0.015
642.61	0.015
642.81	0.015
643.01	0.015
643.21	0.015
643.41	0.015
643.61	0.015
643.81	0.015
644.01	0.014
644.21	0.014
644.41	0.014
644.61	0.014
644.81	0.014
645.01	0.014
645.21	0.014
645.41	0.014
645.61	0.014
645.81	0.014
646.01	0.015
646.21	0.015
646.40	0.015
646.60	0.015
646.80	0.015
647.00	0.016
647.20	0.016
647.40	0.015
647.60	0.015
647.80	0.016
648.00	0.016
648.20	0.016
648.40	0.015
648.60	0.015
648.80	0.015
649.00	0.015
649.20	0.015
649.39	0.015
649.59	0.015
649.79	0.015
649.99	0.015
650.19	0.015
650.39	0.015
650.59	0.015
650.79	0.015
650.99	0.015
651.19	0.015
651.39	0.015
651.58	0.015
651.78	0.015
651.98	0.015
652.18	0.015
652.38	0.015
652.58	0.014
652.78	0.015
652.98	0.014
653.18	0.015
653.38	0.015
653.57	0.015
653.77	0.015
653.97	0.015
654.17	0.015
654.37	0.015
654.57	0.015
654.77	0.015
654.97	0.015
655.16	0.015
655.36	0.015
655.56	0.014
655.76	0.014
655.96	0.014
656.16	0.014
656.36	0.014
656.56	0.014
656.75	0.013
656.95	0.013
657.15	0.013
657.35	0.014
657.55	0.014
657.75	0.014
657.95	0.014
658.14	0.014
658.34	0.014
658.54	0.014
658.74	0.014
658.94	0.015
659.14	0.015
659.34	0.014
659.53	0.014
659.73	0.014
659.93	0.014
660.13	0.014
660.33	0.014
660.53	0.014
660.72	0.014
660.92	0.014
661.12	0.014
661.32	0.014
661.52	0.015
661.72	0.014
661.91	0.014
662.11	0.014
662.31	0.014
662.51	0.014
662.71	0.014
662.90	0.014
663.10	0.014
663.30	0.014
663.50	0.014
663.70	0.014
663.90	0.014
664.09	0.014
664.29	0.014
664.49	0.015
664.69	0.015
664.89	0.014
665.08	0.014
665.28	0.014
665.48	0.014
665.68	0.014
665.88	0.015
666.07	0.014
666.27	0.014
666.47	0.014
666.67	0.014
666.87	0.014
667.06	0.014
667.26	0.014
667.46	0.014
667.66	0.014
667.85	0.014
668.05	0.013
668.25	0.014
668.45	0.014
668.65	0.014
668.84	0.014
669.04	0.014
669.24	0.014
669.44	0.014
669.63	0.014
669.83	0.014
670.03	0.014
670.23	0.014
670.42	0.013
670.62	0.013
670.82	0.013
671.02	0.013
671.22	0.013
671.41	0.013
671.61	0.013
671.81	0.013
672.01	0.013
672.20	0.013
672.40	0.013
672.60	0.013
672.80	0.013
672.99	0.014
673.19	0.014
673.39	0.014
673.58	0.014
673.78	0.014
673.98	0.014
674.18	0.014
674.37	0.014
674.57	0.014
674.77	0.014
674.97	0.014
675.16	0.013
675.36	0.013
675.56	0.014
675.75	0.013
675.95	0.013
676.15	0.014
676.35	0.014
676.54	0.014
676.74	0.014
676.94	0.014
677.13	0.014
677.33	0.014
677.53	0.014
677.73	0.014
677.92	0.014
678.12	0.014
678.32	0.014
678.51	0.014
678.71	0.014
678.91	0.014
679.11	0.014
679.30	0.014
679.50	0.014
679.70	0.014
679.89	0.014
680.09	0.014
680.29	0.014
680.48	0.014
680.68	0.014
680.88	0.014
681.07	0.014
681.27	0.014
681.47	0.015
681.66	0.015
681.86	0.015
682.06	0.015
682.25	0.014
682.45	0.014
682.65	0.014
682.84	0.014
683.04	0.014
683.24	0.014
683.43	0.013
683.63	0.013
683.83	0.013
684.02	0.013
684.22	0.013
684.42	0.013
684.61	0.013
684.81	0.013
685.01	0.013
685.20	0.013
685.40	0.013
685.60	0.013
685.79	0.014
685.99	0.013
686.19	0.014
686.38	0.014
686.58	0.014
686.77	0.014
686.97	0.014
687.17	0.014
687.36	0.014
687.56	0.014
687.76	0.014
687.95	0.014
688.15	0.014
688.34	0.013
688.54	0.013
688.74	0.014
688.93	0.014
689.13	0.013
689.33	0.013
689.52	0.013
689.72	0.013
689.91	0.013
690.11	0.013
690.31	0.013
690.50	0.014
690.70	0.014
690.89	0.013
691.09	0.014
691.29	0.013
691.48	0.013
691.68	0.014
691.87	0.014
692.07	0.014
692.27	0.014
692.46	0.014
692.66	0.014
692.85	0.014
693.05	0.014
693.25	0.014
693.44	0.014
693.64	0.014
693.83	0.014
694.03	0.014
694.22	0.014
694.42	0.014
694.62	0.014
694.81	0.014
695.01	0.014
695.20	0.013
695.40	0.013
695.59	0.013
695.79	0.014
695.99	0.013
696.18	0.013
696.38	0.013
696.57	0.013
696.77	0.013
696.96	0.013
697.16	0.013
697.36	0.013
697.55	0.013
697.75	0.013
697.94	0.013
698.14	0.013
698.33	0.013
698.53	0.013
698.72	0.013
698.92	0.013
699.11	0.013
699.31	0.013
699.51	0.013
699.70	0.013
699.90	0.013
700.09	0.013
700.29	0.013
700.48	0.013
700.68	0.013
700.87	0.013
701.07	0.013
701.26	0.013
701.46	0.013
701.65	0.013
701.85	0.013
702.04	0.013
702.24	0.013
702.43	0.013
702.63	0.013
702.82	0.013
703.02	0.013
703.21	0.013
703.41	0.013
703.60	0.013
703.80	0.013
703.99	0.013
704.19	0.013
704.38	0.013
704.58	0.013
704.77	0.013
704.97	0.013
705.16	0.013
705.36	0.013
705.55	0.013
705.75	0.013
705.94	0.013
706.14	0.013
706.33	0.013
706.53	0.013
706.72	0.013
706.92	0.013
707.11	0.013
707.31	0.013
707.50	0.013
707.70	0.012
707.89	0.012
708.09	0.013
708.28	0.013
708.48	0.013
708.67	0.012
708.86	0.012
709.06	0.013
709.25	0.013
709.45	0.013
709.64	0.013
709.84	0.013
710.03	0.013
710.23	0.013
710.42	0.013
710.62	0.013
710.81	0.013
711.00	0.012
711.20	0.012
711.39	0.012
711.59	0.012
711.78	0.012
711.98	0.012
712.17	0.012
712.37	0.013
712.56	0.013
712.75	0.013
712.95	0.013
713.14	0.013
713.34	0.013
713.53	0.012
713.73	0.013
713.92	0.012
714.11	0.012
714.31	0.012
714.50	0.012
714.70	0.012
714.89	0.012
715.08	0.012
715.28	0.012
715.47	0.012
715.67	0.012
715.86	0.012
716.06	0.012
716.25	0.012
716.44	0.011
716.64	0.011
716.83	0.011
717.03	0.011
717.22	0.011
717.41	0.011
717.61	0.010
717.80	0.010
717.99	0.010
718.19	0.010
718.38	0.010
718.58	0.010
718.77	0.010
718.96	0.010
719.16	0.010
719.35	0.010
719.55	0.010
719.74	0.010
719.93	0.010
720.13	0.011
720.32	0.011
720.51	0.011
720.71	0.011
720.90	0.011
721.10	0.011
721.29	0.011
721.48	0.010
721.68	0.010
721.87	0.011
722.06	0.010
722.26	0.010
722.45	0.010
722.64	0.010
722.84	0.010
723.03	0.010
723.22	0.010
723.42	0.010
723.61	0.010
723.80	0.010
724.00	0.009
724.19	0.009
724.38	0.009
724.58	0.009
724.77	0.009
724.96	0.008
725.16	0.008
725.35	0.008
725.54	0.008
725.74	0.008
725.93	0.008
726.12	0.008
726.32	0.008
726.51	0.008
726.70	0.008
726.90	0.008
727.09	0.008
727.28	0.007
727.48	0.007
727.67	0.007
727.86	0.007
728.06	0.008
728.25	0.008
728.44	0.007
728.64	0.008
728.83	0.008
729.02	0.008
729.21	0.008
729.41	0.008
729.60	0.008
729.79	0.008
729.99	0.007
730.18	0.007
730.37	0.007
730.56	0.007
730.76	0.007
730.95	0.007
731.14	0.006
731.34	0.006
731.53	0.006
731.72	0.006
731.91	0.006
732.11	0.006
732.30	0.006
732.49	0.006
732.69	0.006
732.88	0.006
733.07	0.006
733.26	0.006
733.46	0.006
733.65	0.006
733.84	0.006
734.03	0.006
734.23	0.005
734.42	0.005
734.61	0.005
734.80	0.005
735.00	0.005
735.19	0.005
735.38	0.005
735.57	0.005
735.77	0.005
735.96	0.005
736.15	0.005
736.34	0.005
736.54	0.005
736.73	0.005
736.92	0.005
737.11	0.005
737.31	0.005
737.50	0.005
737.69	0.004
737.88	0.004
738.07	0.005
738.27	0.005
738.46	0.005
738.65	0.005
738.84	0.005
739.04	0.005
739.23	0.005
739.42	0.005
739.61	0.005
739.80	0.005
740.00	0.005
740.19	0.004
740.38	0.004
740.57	0.004
740.76	0.004
740.96	0.004
741.15	0.005
741.34	0.005
741.53	0.005
741.72	0.005
741.92	0.005
742.11	0.005
742.30	0.005
742.49	0.005
742.68	0.005
742.88	0.006
743.07	0.005
743.26	0.005
743.45	0.005
743.64	0.006
743.84	0.005
744.03	0.005
744.22	0.006
744.41	0.005
744.60	0.006
744.79	0.006
744.99	0.005
745.18	0.006
745.37	0.005
745.56	0.005
745.75	0.005
745.94	0.005
746.14	0.005
746.33	0.005
746.52	0.006
746.71	0.006
746.90	0.006
747.09	0.006
747.28	0.006
747.48	0.006
747.67	0.006
747.86	0.006
748.05	0.006
748.24	0.006
748.43	0.006
748.62	0.006
748.82	0.006
749.01	0.006
749.20	0.006
749.39	0.006
749.58	0.006
749.77	0.006
749.96	0.006
750.16	0.006
750.35	0.007
750.54	0.006
750.73	0.007
750.92	0.007
751.11	0.007
751.30	0.007
751.49	0.007
751.68	0.007
751.88	0.007
752.07	0.007
752.26	0.007
752.45	0.006
752.64	0.006
752.83	0.006
753.02	0.006
753.21	0.006
753.40	0.006
753.60	0.006
753.79	0.006
753.98	0.007
754.17	0.007
754.36	0.007
754.55	0.007
754.74	0.007
754.93	0.007
755.12	0.007
755.31	0.007
755.50	0.007
755.70	0.008
755.89	0.008
756.08	0.008
756.27	0.008
756.46	0.008
756.65	0.008
756.84	0.009
757.03	0.009
757.22	0.008
757.41	0.009
757.60	0.009
757.79	0.009
757.98	0.009
758.17	0.008
758.36	0.008
758.56	0.008
758.75	0.008
758.94	0.008
759.13	0.008
759.32	0.008
759.51	0.008
759.70	0.008
759.89	0.008
760.08	0.008
760.27	0.008
760.46	0.008
760.65	0.008
760.84	0.008
761.03	0.008
761.22	0.009
761.41	0.009
761.60	0.009
761.79	0.009
761.98	0.009
762.17	0.010
762.36	0.010
762.55	0.010
762.74	0.010
762.93	0.009
763.12	0.009
763.31	0.009
763.50	0.009
763.69	0.009
763.88	0.009
764.07	0.009
764.26	0.008
764.45	0.008
764.64	0.008
764.83	0.008
765.02	0.008
765.21	0.008
765.40	0.008
765.59	0.007
765.78	0.008
765.97	0.008
766.16	0.007
766.35	0.008
766.54	0.007
766.73	0.008
766.92	0.007
767.11	0.008
767.30	0.007
767.49	0.007
767.68	0.007
767.87	0.007
768.06	0.007
768.25	0.007
768.44	0.006
768.63	0.007
768.82	0.006
769.01	0.006
769.20	0.006
769.39	0.006
769.58	0.005
769.77	0.005
769.96	0.005
770.15	0.005
770.34	0.005
770.53	0.005
770.72	0.005
770.91	0.005
771.10	0.005
771.29	0.005
771.47	0.005
771.66	0.006
771.85	0.005
772.04	0.006
772.23	0.006
772.42	0.006
772.61	0.005
772.80	0.006
772.99	0.006
773.18	0.006
773.37	0.006
773.56	0.006
773.75	0.005
773.94	0.006
774.13	0.006
774.31	0.006
774.50	0.005
774.69	0.005
774.88	0.005
775.07	0.005
775.26	0.005
775.45	0.005
775.64	0.005
775.83	0.005
776.02	0.005
776.21	0.005
776.40	0.005
776.58	0.005
776.77	0.005
776.96	0.005
777.15	0.004
777.34	0.004
777.53	0.004
777.72	0.004
777.91	0.004
778.10	0.004
778.28	0.004
778.47	0.004
778.66	0.004
778.85	0.004
779.04	0.004
779.23	0.003
779.42	0.003
779.61	0.004
779.79	0.004
779.98	0.004
780.17	0.004
780.36	0.004
780.55	0.005
780.74	0.005
780.93	0.005
781.12	0.005
781.30	0.005
781.49	0.005
781.68	0.004
781.87	0.005
782.06	0.004
782.25	0.004
782.44	0.004
782.62	0.004
782.81	0.004
783.00	0.004
783.19	0.004
783.38	0.004
783.57	0.004
783.75	0.004
783.94	0.004
784.13	0.004
784.32	0.004
784.51	0.004
784.70	0.004
784.88	0.004
785.07	0.004
785.26	0.004
785.45	0.004
785.64	0.004
785.83	0.004
786.01	0.004
786.20	0.004
786.39	0.004
786.58	0.005
786.77	0.004
786.95	0.004
787.14	0.004
787.33	0.005
787.52	0.005
787.71	0.005
787.90	0.005
788.08	0.005
788.27	0.005
788.46	0.005
788.65	0.005
788.84	0.005
789.02	0.005
789.21	0.005
789.40	0.005
789.59	0.005
789.77	0.005
789.96	0.005
790.15	0.005
790.34	0.005
790.53	0.005
790.71	0.006
790.90	0.005
791.09	0.005
791.28	0.005
791.46	0.005
791.65	0.005
791.84	0.005
792.03	0.006
792.22	0.006
792.40	0.006
792.59	0.006
792.78	0.006
792.97	0.006
793.15	0.006
793.34	0.006
793.53	0.006
793.72	0.006
793.90	0.006
794.09	0.006
794.28	0.006
794.47	0.007
794.65	0.007
794.84	0.006
795.03	0.006
795.22	0.006
795.40	0.006
795.59	0.006
795.78	0.006
795.97	0.006
796.15	0.007
796.34	0.006
796.53	0.006
796.71	0.006
796.90	0.006
797.09	0.007
797.28	0.007
797.46	0.007
797.65	0.007
797.84	0.007
798.02	0.007
798.21	0.007
798.40	0.007
798.59	0.007
798.77	0.007
798.96	0.007
799.15	0.007
799.33	0.007
799.52	0.007
799.71	0.007
799.90	0.007
800.08	0.007
800.27	0.007
800.46	0.007
800.64	0.007
800.83	0.007
801.02	0.007
801.20	0.007
801.39	0.007
801.58	0.007
801.76	0.006
801.95	0.006
802.14	0.007
802.32	0.007
802.51	0.006
802.70	0.006
802.88	0.007
803.07	0.007
803.26	0.007
803.44	0.007
803.63	0.006
803.82	0.007
804.00	0.007
804.19	0.007
804.38	0.007
804.56	0.007
804.75	0.007
804.94	0.007
805.12	0.007
805.31	0.007
805.50	0.007
805.68	0.008
805.87	0.007
806.06	0.008
806.24	0.007
806.43	0.007
806.62	0.007
806.80	0.007
806.99	0.007
807.17	0.007
807.36	0.007
807.55	0.007
807.73	0.006
807.92	0.006
808.11	0.007
808.29	0.007
808.48	0.007
808.66	0.007
808.85	0.007
809.04	0.007
809.22	0.007
809.41	0.007
809.59	0.007
809.78	0.007
809.97	0.007
810.15	0.007
810.34	0.007
810.53	0.007
810.71	0.007
810.90	0.007
811.08	0.008
811.27	0.008
811.45	0.007
811.64	0.008
811.83	0.008
812.01	0.008
812.20	0.008
812.38	0.008
812.57	0.007
812.76	0.007
812.94	0.007
813.13	0.007
813.31	0.007
813.50	0.007
813.68	0.007
813.87	0.007
814.06	0.007
814.24	0.007
814.43	0.007
814.61	0.007
814.80	0.007
814.98	0.007
815.17	0.007
815.36	0.007
815.54	0.007
815.73	0.007
815.91	0.007
816.10	0.007
816.28	0.007
816.47	0.007
816.65	0.007
816.84	0.007
817.03	0.007
817.21	0.007
817.40	0.007
817.58	0.007
817.77	0.006
817.95	0.006
818.14	0.006
818.32	0.007
818.51	0.007
818.69	0.007
818.88	0.007
819.06	0.007
819.25	0.007
819.43	0.007
819.62	0.007
819.80	0.007
819.99	0.007
820.18	0.007
820.36	0.007
820.55	0.007
820.73	0.007
820.92	0.007
821.10	0.007
821.29	0.007
821.47	0.007
821.66	0.007
821.84	0.007
822.03	0.007
822.21	0.007
822.40	0.007
822.58	0.007
822.77	0.007
822.95	0.007
823.14	0.007
823.32	0.007
823.50	0.006
823.69	0.006
823.87	0.006
824.06	0.006
824.24	0.006
824.43	0.006
824.61	0.006
824.80	0.006
824.98	0.006
825.17	0.006
825.35	0.005
825.54	0.005
825.72	0.005
825.91	0.005
826.09	0.005
826.28	0.005
826.46	0.005
826.64	0.005
826.83	0.005
827.01	0.004
827.20	0.005
827.38	0.005
827.57	0.005
827.75	0.005
827.94	0.005
828.12	0.004
828.31	0.004
828.49	0.004
828.67	0.004
828.86	0.004
829.04	0.004
829.23	0.004
829.41	0.003
829.60	0.003
829.78	0.003
829.96	0.003
830.15	0.003
830.33	0.003
830.52	0.003
830.70	0.003
830.88	0.003
831.07	0.003
831.25	0.003
831.44	0.003
831.62	0.003
831.81	0.003
831.99	0.003
832.17	0.003
832.36	0.003
832.54	0.003
832.73	0.002
832.91	0.002
833.09	0.002
833.28	0.002
833.46	0.002
833.65	0.002
833.83	0.002
834.01	0.002
834.20	0.002
834.38	0.002
834.56	0.002
834.75	0.002
834.93	0.003
835.12	0.003
835.30	0.002
835.48	0.002
835.67	0.002
835.85	0.002
836.03	0.002
836.22	0.001
836.40	0.001
836.59	0.001
836.77	0.001
836.95	0.001
837.14	0.001
837.32	0.001
837.50	0.001
837.69	0.001
837.87	0.001
838.05	0.001
838.24	0.001
838.42	0.001
838.60	0.001
838.79	0.001
838.97	0.001
839.15	0.002
839.34	0.001
839.52	0.001
839.70	0.001
839.89	0.001
840.07	0.001
840.25	0.001
840.44	0.001
840.62	0.000
840.80	0.000
840.99	0.000
841.17	0.000
841.35	0.000
841.54	0.000
841.72	0.000
841.90	0.000
842.09	0.000
842.27	0.000
842.45	0.000
842.64	-0.000
842.82	0.000
843.00	-0.000
843.19	-0.000
843.37	-0.000
843.55	-0.001
843.73	-0.000
843.92	-0.001
844.10	-0.000
844.28	-0.001
844.47	-0.001
844.65	-0.000
844.83	-0.000
845.01	-0.001
845.20	-0.000
845.38	-0.000
845.56	-0.000
845.75	-0.000
845.93	-0.000
846.11	-0.001
846.29	-0.000
846.48	-0.000
846.66	-0.001
846.84	-0.001
847.02	-0.000
847.21	-0.000
847.39	-0.000
847.57	-0.000
847.76	-0.000
847.94	0.000
848.12	0.000
848.30	-0.000
848.49	0.000
848.67	0.001
848.85	0.001
849.03	0.000
849.22	0.000
849.40	0.000
849.58	0.000
849.76	0.000
849.95	-0.000
850.13	0.000
850.31	0.000
850.49	0.000
850.67	0.000
850.86	0.000
851.04	0.000
851.22	0.000
851.40	-0.000
851.59	0.000
851.77	0.000
851.95	0.000
852.13	0.000
852.31	0.000
852.50	-0.000
852.68	-0.000
852.86	-0.000
853.04	-0.000
853.23	-0.000
853.41	-0.000
853.59	-0.001
853.77	-0.001
853.95	-0.000
854.14	-0.001
854.32	-0.000
854.50	-0.000
854.68	-0.001
854.86	-0.001
855.04	-0.001
855.23	-0.001
855.41	-0.001
855.59	-0.001
855.77	-0.001
855.95	-0.001
856.14	-0.001
856.32	-0.002
856.50	-0.002
856.68	-0.002
856.86	-0.002
857.04	-0.002
857.23	-0.002
857.41	-0.002
857.59	-0.002
857.77	-0.002
857.95	-0.002
858.13	-0.002
858.32	-0.002
858.50	-0.001
858.68	-0.001
858.86	-0.001
859.04	-0.001
859.22	-0.001
859.41	-0.001
859.59	-0.002
859.77	-0.002
859.95	-0.001
860.13	-0.001
860.31	-0.001
860.49	-0.002
860.68	-0.002
860.86	-0.002
861.04	-0.002
861.22	-0.002
861.40	-0.002
861.58	-0.002
861.76	-0.002
861.94	-0.002
862.13	-0.002
862.31	-0.002
862.49	-0.002
862.67	-0.002
862.85	-0.002
863.03	-0.002
863.21	-0.002
863.39	-0.002
863.57	-0.002
863.76	-0.002
863.94	-0.002
864.12	-0.002
864.30	-0.002
864.48	-0.002
864.66	-0.002
864.84	-0.002
865.02	-0.002
865.20	-0.002
865.38	-0.002
865.57	-0.002
865.75	-0.002
865.93	-0.002
866.11	-0.002
866.29	-0.002
866.47	-0.002
866.65	-0.002
866.83	-0.001
867.01	-0.001
867.19	-0.001
867.37	-0.001
867.55	-0.001
867.73	-0.002
867.92	-0.001
868.10	-0.001
868.28	-0.001
868.46	-0.001
868.64	-0.001
868.82	-0.001
869.00	-0.001
869.18	-0.001
869.36	-0.001
869.54	-0.000
869.72	-0.000
869.90	0.000
870.08	0.000
870.26	0.000
870.44	0.000
870.62	0.001
870.80	0.001
870.98	0.001
871.16	0.001
871.34	0.001
871.53	0.001
871.71	0.001
871.89	0.001
872.07	0.001
872.25	0.001
872.43	0.001
872.61	0.001
872.79	0.002
872.97	0.001
873.15	0.002
873.33	0.002
873.51	0.002
873.69	0.002
873.87	0.003
874.05	0.003
874.23	0.003
874.41	0.003
874.59	0.003
874.77	0.003
874.95	0.002
875.13	0.003
875.31	0.003
875.49	0.002
875.67	0.002
875.85	0.002
876.03	0.002
876.21	0.002
876.39	0.002
876.57	0.002
876.75	0.002
876.93	0.002
877.11	0.002
877.29	0.001
877.47	0.002
877.65	0.002
877.82	0.002
878.00	0.002
878.18	0.002
878.36	0.002
878.54	0.001
878.72	0.001
878.90	0.002
879.08	0.002
879.26	0.002
879.44	0.002
879.62	0.002
879.80	0.001
879.98	0.001
880.16	0.001
880.34	0.001
880.52	0.001
880.70	0.001
880.88	0.001
881.06	0.001
881.24	0.000
881.42	0.000
881.59	0.000
881.77	0.000
881.95	-0.000
882.13	-0.000
882.31	-0.000
882.49	-0.000
882.67	-0.000
882.85	-0.000
883.03	0.000
883.21	0.000
883.39	0.001
883.57	0.001
883.75	0.001
883.92	0.001
884.10	0.001
884.28	0.001
884.46	0.000
884.64	0.000
884.82	0.000
885.00	0.000
885.18	0.000
885.36	0.000
885.54	-0.000
885.71	-0.000
885.89	-0.000
886.07	-0.000
886.25	-0.000
886.43	-0.000
886.61	0.000
886.79	0.000
886.97	0.000
887.15	0.000
887.32	0.001
887.50	0.001
887.68	0.001
887.86	0.000
888.04	0.000
888.22	0.000
888.40	0.000
888.57	0.000
888.75	0.000
888.93	-0.000
889.11	-0.000
889.29	-0.000
889.47	-0.000
889.65	0.000
889.82	0.000
890.00	0.000
890.18	0.000
890.36	0.001
890.54	0.000
890.72	0.000
890.90	0.001
891.07	0.001
891.25	0.001
891.43	0.001
891.61	0.001
891.79	0.002
891.97	0.002
892.14	0.002
892.32	0.002
892.50	0.002
892.68	0.002
892.86	0.002
893.03	0.002
893.21	0.002
893.39	0.003
893.57	0.003
893.75	0.003
893.93	0.003
894.10	0.003
894.28	0.003
894.46	0.003
894.64	0.003
894.82	0.003
894.99	0.003
895.17	0.003
895.35	0.003
895.53	0.002
895.71	0.002
895.88	0.002
896.06	0.002
896.24	0.002
896.42	0.002
896.59	0.002
896.77	0.002
896.95	0.002
897.13	0.002
897.31	0.002
897.48	0.002
897.66	0.002
897.84	0.003
898.02	0.003
898.19	0.003
898.37	0.003
898.55	0.003
898.73	0.003
898.91	0.003
899.08	0.003
899.26	0.003
899.44	0.003
899.62	0.003
899.79	0.003
899.97	0.003
900.15	0.003
900.33	0.003
900.50	0.003
900.68	0.004
900.86	0.003
901.04	0.004
901.21	0.004
901.39	0.003
901.57	0.003
901.74	0.003
901.92	0.003
902.10	0.004
902.28	0.003
902.45	0.004
902.63	0.003
902.81	0.004
902.99	0.003
903.16	0.004
903.34	0.004
903.52	0.004
903.69	0.004
903.87	0.004
904.05	0.005
904.22	0.005
904.40	0.005
904.58	0.005
904.76	0.006
904.93	0.006
905.11	0.006
905.29	0.006
905.46	0.006
905.64	0.007
905.82	0.007
905.99	0.007
906.17	0.007
906.35	0.007
906.53	0.007
906.70	0.007
906.88	0.008
907.06	0.008
907.23	0.008
907.41	0.008
907.59	0.008
907.76	0.009
907.94	0.009
908.12	0.010
908.29	0.010
908.47	0.010
908.65	0.011
908.82	0.012
909.00	0.012
909.18	0.012
909.35	0.013
909.53	0.013
909.71	0.013
909.88	0.013
910.06	0.014
910.23	0.014
910.41	0.015
910.59	0.015
910.76	0.015
910.94	0.016
911.12	0.016
911.29	0.017
911.47	0.017
911.65	0.017
911.82	0.017
912.00	0.017
912.17	0.017
912.35	0.018
912.53	0.018
912.70	0.018
912.88	0.018
913.06	0.018
913.23	0.018
913.41	0.018
913.58	0.018
913.76	0.019
913.94	0.019
914.11	0.019
914.29	0.019
914.46	0.019
914.64	0.019
914.82	0.020
914.99	0.020
915.17	0.021
915.34	0.021
915.52	0.021
915.70	0.022
915.87	0.022
916.05	0.022
916.22	0.023
916.40	0.024
916.57	0.024
916.75	0.024
916.93	0.024
917.10	0.025
917.28	0.025
917.45	0.025
917.63	0.026
917.80	0.026
917.98	0.027
918.16	0.027
918.33	0.027
918.51	0.027
918.68	0.028
918.86	0.028
919.03	0.028
919.21	0.029
919.39	0.029
919.56	0.029
919.74	0.029
919.91	0.030
920.09	0.030
920.26	0.030
920.44	0.030
920.61	0.030
920.79	0.030
920.96	0.031
921.14	0.031
921.31	0.031
921.49	0.031
921.67	0.032
921.84	0.032
922.02	0.033
922.19	0.033
922.37	0.033
922.54	0.034
922.72	0.034
922.89	0.034
923.07	0.034
923.24	0.034
923.42	0.035
923.59	0.035
923.77	0.035
923.94	0.035
924.12	0.036
924.29	0.036
924.47	0.036
924.64	0.037
924.82	0.037
924.99	0.038
925.17	0.038
925.34	0.038
925.52	0.039
925.69	0.039
925.87	0.039
926.04	0.038
926.22	0.038
926.39	0.038
926.57	0.038
926.74	0.039
926.91	0.039
927.09	0.038
927.26	0.038
927.44	0.038
927.61	0.038
927.79	0.038
927.96	0.038
928.14	0.038
928.31	0.038
928.49	0.037
928.66	0.037
928.84	0.037
929.01	0.037
929.18	0.037
929.36	0.036
929.53	0.036
929.71	0.036
929.88	0.035
930.06	0.035
930.23	0.034
930.41	0.034
930.58	0.033
930.75	0.033
930.93	0.032
931.10	0.031
931.28	0.031
931.45	0.030
931.63	0.029
931.80	0.029
931.97	0.028
932.15	0.027
932.32	0.026
932.50	0.025
932.67	0.025
932.84	0.024
933.02	0.023
933.19	0.022
933.37	0.021
933.54	0.020
933.71	0.019
933.89	0.018
934.06	0.017
934.24	0.016
934.41	0.014
934.58	0.013
934.76	0.012
934.93	0.011
935.11	0.009
935.28	0.008
935.45	0.007
935.63	0.006
935.80	0.005
935.98	0.004
936.15	0.002
936.32	0.001
936.50	-0.000
936.67	-0.001
936.84	-0.003
937.02	-0.004
937.19	-0.006
937.36	-0.007
937.54	-0.008
937.71	-0.010
937.89	-0.011
938.06	-0.012
938.23	-0.014
938.41	-0.015
938.58	-0.017
938.75	-0.018
938.93	-0.019
939.10	-0.020
939.27	-0.022
939.45	-0.023
939.62	-0.024
939.79	-0.026
939.97	-0.028
940.14	-0.029
940.31	-0.031
940.49	-0.032
940.66	-0.034
940.83	-0.035
941.01	-0.037
941.18	-0.038
941.35	-0.039
941.53	-0.041
941.70	-0.042
941.87	-0.043
942.05	-0.044
942.22	-0.045
942.39	-0.046
942.57	-0.047
942.74	-0.048
942.91	-0.049
943.08	-0.051
943.26	-0.052
943.43	-0.053
943.60	-0.054
943.78	-0.056
943.95	-0.058
944.12	-0.059
944.29	-0.060
944.47	-0.061
944.64	-0.063
944.81	-0.065
944.99	-0.066
945.16	-0.067
945.33	-0.069
945.50	-0.070
945.68	-0.071
945.85	-0.072
946.02	-0.073
946.20	-0.074
946.37	-0.076
946.54	-0.076
946.71	-0.078
946.89	-0.079
947.06	-0.080
947.23	-0.081
947.40	-0.083
947.58	-0.084
947.75	-0.086
947.92	-0.087
948.09	-0.088
948.27	-0.089
948.44	-0.091
948.61	-0.092
948.78	-0.093
948.96	-0.095
949.13	-0.096
949.30	-0.098
949.47	-0.099
949.65	-0.100
949.82	-0.101
949.99	-0.103
950.16	-0.104
950.33	-0.106
950.51	-0.108
950.68	-0.109
950.85	-0.110
951.02	-0.112
951.20	-0.113
951.37	-0.115
951.54	-0.117
951.71	-0.118
951.88	-0.119
952.06	-0.121
952.23	-0.122
952.40	-0.123
952.57	-0.124
952.74	-0.126
952.92	-0.127
953.09	-0.129
953.26	-0.130
953.43	-0.131
953.60	-0.132
953.77	-0.133
953.95	-0.135
954.12	-0.137
954.29	-0.138
954.46	-0.140
954.63	-0.141
954.81	-0.142
954.98	-0.144
955.15	-0.145
955.32	-0.147
955.49	-0.148
955.66	-0.150
955.84	-0.151
956.01	-0.152
956.18	-0.154
956.35	-0.154
956.52	-0.156
956.69	-0.157
956.87	-0.158
957.04	-0.159
957.21	-0.161
957.38	-0.161
957.55	-0.162
957.72	-0.163
957.89	-0.164
958.07	-0.164
958.24	-0.165
958.41	-0.166
958.58	-0.167
958.75	-0.167
958.92	-0.168
959.09	-0.169
959.26	-0.169
959.44	-0.170
959.61	-0.171
959.78	-0.172
959.95	-0.173
960.12	-0.173
960.29	-0.174
960.46	-0.175
960.63	-0.175
960.81	-0.176
960.98	-0.177
961.15	-0.178
961.32	-0.178
961.49	-0.178
961.66	-0.179
961.83	-0.179
962.00	-0.180
962.17	-0.180
962.34	-0.180
962.52	-0.180
962.69	-0.181
962.86	-0.181
963.03	-0.181
963.20	-0.182
963.37	-0.183
963.54	-0.183
963.71	-0.183
963.88	-0.183
964.05	-0.184
964.22	-0.184
964.39	-0.184
964.56	-0.184
964.74	-0.185
964.91	-0.185
965.08	-0.185
965.25	-0.185
965.42	-0.186
965.59	-0.186
965.76	-0.186
965.93	-0.186
966.10	-0.187
966.27	-0.187
966.44	-0.187
966.61	-0.187
966.78	-0.187
966.95	-0.187
967.12	-0.187
967.29	-0.187
967.46	-0.187
967.63	-0.187
967.80	-0.187
967.97	-0.187
968.14	-0.187
968.32	-0.187
968.49	-0.187
968.66	-0.188
968.83	-0.188
969.00	-0.188
969.17	-0.188
969.34	-0.188
969.51	-0.188
969.68	-0.188
969.85	-0.188
970.02	-0.188
970.19	-0.188
970.36	-0.189
970.53	-0.189
970.70	-0.189
970.87	-0.189
971.04	-0.190
971.21	-0.190
971.38	-0.190
971.55	-0.190
971.72	-0.190
971.89	-0.190
972.06	-0.190
972.23	-0.190
972.40	-0.190
972.57	-0.191
972.74	-0.191
972.91	-0.191
973.07	-0.191
973.24	-0.192
973.41	-0.192
973.58	-0.192
973.75	-0.192
973.92	-0.192
974.09	-0.192
974.26	-0.192
974.43	-0.192
974.60	-0.192
974.77	-0.192
974.94	-0.192
975.11	-0.192
975.28	-0.192
975.45	-0.192
975.62	-0.192
975.79	-0.192
975.96	-0.192
976.13	-0.192
976.30	-0.192
976.47	-0.192
976.64	-0.193
976.80	-0.193
976.97	-0.193
977.14	-0.192
977.31	-0.192
977.48	-0.193
977.65	-0.192
977.82	-0.192
977.99	-0.192
978.16	-0.192
978.33	-0.192
978.50	-0.192
978.67	-0.192
978.83	-0.192
979.00	-0.192
979.17	-0.192
979.34	-0.192
979.51	-0.192
979.68	-0.192
979.85	-0.191
980.02	-0.191
980.19	-0.191
980.36	-0.191
980.52	-0.191
980.69	-0.190
980.86	-0.190
981.03	-0.190
981.20	-0.189
981.37	-0.190
981.54	-0.189
981.71	-0.189
981.88	-0.188
982.04	-0.188
982.21	-0.188
982.38	-0.187
982.55	-0.188
982.72	-0.188
982.89	-0.188
983.06	-0.187
983.22	-0.187
983.39	-0.187
983.56	-0.186
983.73	-0.186
983.90	-0.186
984.07	-0.186
984.24	-0.185
984.40	-0.185
984.57	-0.184
984.74	-0.184
984.91	-0.184
985.08	-0.183
985.25	-0.184
985.41	-0.184
985.58	-0.184
985.75	-0.183
985.92	-0.183
986.09	-0.183
986.26	-0.183
986.42	-0.182
986.59	-0.182
986.76	-0.182
986.93	-0.182
987.10	-0.182
987.27	-0.181
987.43	-0.181
987.60	-0.180
987.77	-0.180
987.94	-0.179
988.11	-0.179
988.27	-0.179
988.44	-0.179
988.61	-0.178
988.78	-0.178
988.95	-0.176
989.11	-0.176
989.28	-0.176
989.45	-0.176
989.62	-0.175
989.79	-0.175
989.95	-0.174
990.12	-0.174
990.29	-0.173
990.46	-0.173
990.62	-0.173
990.79	-0.173
990.96	-0.172
991.13	-0.172
991.30	-0.171
991.46	-0.171
991.63	-0.171
991.80	-0.171
991.97	-0.170
992.13	-0.169
992.30	-0.169
992.47	-0.168
992.64	-0.169
992.80	-0.169
992.97	-0.168
993.14	-0.167
993.31	-0.167
993.47	-0.167
993.64	-0.166
993.81	-0.166
993.98	-0.166
994.14	-0.166
994.31	-0.165
994.48	-0.164
994.64	-0.163
994.81	-0.164
994.98	-0.163
995.15	-0.163
995.31	-0.162
995.48	-0.162
995.65	-0.160
995.82	-0.160
995.98	-0.159
996.15	-0.159
996.32	-0.159
996.48	-0.159
996.65	-0.158
996.82	-0.158
996.99	-0.157
997.15	-0.157
997.32	-0.156
997.49	-0.156
997.65	-0.156
997.82	-0.156
997.99	-0.155
998.15	-0.155
998.32	-0.154
998.49	-0.154
998.65	-0.153
998.82	-0.153
998.99	-0.152
999.15	-0.152
999.32	-0.151
999.49	-0.150
999.65	-0.149
999.82	-0.149
999.99	-0.148
1000.15	-0.149
1000.32	-0.148
1000.49	-0.148
1000.65	-0.148
1000.82	-0.148
1000.99	-0.147
1001.15	-0.147
1001.32	-0.146
1001.49	-0.146
1001.65	-0.146
1001.82	-0.146
1001.99	-0.144
1002.15	-0.144
1002.32	-0.143
1002.49	-0.142
1002.65	-0.141
1002.82	-0.140
1002.99	-0.140
1003.15	-0.140
1003.32	-0.139
1003.48	-0.139
1003.65	-0.138
1003.82	-0.138
1003.98	-0.137
1004.15	-0.136
1004.32	-0.135
1004.48	-0.135
1004.65	-0.135
1004.81	-0.134
1004.98	-0.133
1005.15	-0.133
1005.31	-0.132
1005.48	-0.131
1005.64	-0.131
1005.81	-0.130
1005.98	-0.130
1006.14	-0.130
1006.31	-0.129
1006.47	-0.129
1006.64	-0.129
1006.81	-0.128
1006.97	-0.128
1007.14	-0.128
1007.30	-0.128
1007.47	-0.128
1007.63	-0.127
1007.80	-0.127
1007.97	-0.127
1008.13	-0.126
1008.30	-0.125
1008.46	-0.125
1008.63	-0.125
1008.79	-0.124
1008.96	-0.123
1009.13	-0.122
1009.29	-0.122
1009.46	-0.121
1009.62	-0.120
1009.79	-0.119
1009.95	-0.118
1010.12	-0.118
1010.28	-0.117
1010.45	-0.116
1010.62	-0.116
1010.78	-0.116
1010.95	-0.116
1011.11	-0.114
1011.28	-0.114
1011.44	-0.113
1011.61	-0.113
1011.77	-0.112
1011.94	-0.111
1012.10	-0.111
1012.27	-0.110
1012.43	-0.109
1012.60	-0.108
1012.76	-0.109
1012.93	-0.108
1013.10	-0.108
1013.26	-0.108
1013.43	-0.107
1013.59	-0.106
1013.76	-0.105
1013.92	-0.104
1014.09	-0.103
1014.25	-0.103
1014.42	-0.102
1014.58	-0.101
1014.75	-0.100
1014.91	-0.099
1015.08	-0.099
1015.24	-0.098
1015.41	-0.098
1015.57	-0.098
1015.73	-0.098
1015.90	-0.098
1016.06	-0.098
1016.23	-0.097
1016.39	-0.097
1016.56	-0.097
1016.72	-0.096
1016.89	-0.096
1017.05	-0.095
1017.22	-0.094
1017.38	-0.093
1017.55	-0.092
1017.71	-0.092
1017.88	-0.091
1018.04	-0.091
1018.21	-0.090
1018.37	-0.090
1018.53	-0.089
1018.70	-0.089
1018.86	-0.088
1019.03	-0.088
1019.19	-0.088
1019.36	-0.088
1019.52	-0.088
1019.69	-0.089
1019.85	-0.088
1020.01	-0.088
1020.18	-0.089
1020.34	-0.088
1020.51	-0.087
1020.67	-0.088
1020.84	-0.088
1021.00	-0.088
1021.16	-0.086
1021.33	-0.085
1021.49	-0.084
1021.66	-0.083
1021.82	-0.082
1021.98	-0.081
1022.15	-0.081
1022.31	-0.081
1022.48	-0.080
1022.64	-0.080
1022.80	-0.079
1022.97	-0.078
1023.13	-0.078
1023.30	-0.078
1023.46	-0.079
1023.62	-0.079
1023.79	-0.080
1023.95	-0.079
1024.12	-0.078
1024.28	-0.077
1024.44	-0.077
1024.61	-0.077
1024.77	-0.077
1024.93	-0.077
1025.10	-0.075
1025.26	-0.074
1025.43	-0.073
1025.59	-0.072
1025.75	-0.071
1025.92	-0.071
1026.08	-0.071
1026.24	-0.070
1026.41	-0.071
1026.57	-0.070
1026.73	-0.070
1026.90	-0.071
1027.06	-0.071
1027.23	-0.070
1027.39	-0.070
1027.55	-0.070
1027.72	-0.069
1027.88	-0.068
1028.04	-0.067
1028.21	-0.066
1028.37	-0.066
1028.53	-0.064
1028.70	-0.063
1028.86	-0.063
1029.02	-0.063
1029.19	-0.063
1029.35	-0.063
1029.51	-0.062
1029.67	-0.061
1029.84	-0.060
1030.00	-0.059
1030.16	-0.058
1030.33	-0.058
1030.49	-0.057
1030.65	-0.057
1030.82	-0.056
1030.98	-0.055
1031.14	-0.055
1031.31	-0.054
1031.47	-0.054
1031.63	-0.055
1031.79	-0.055
1031.96	-0.056
1032.12	-0.056
1032.28	-0.055
1032.45	-0.055
1032.61	-0.055
1032.77	-0.055
1032.93	-0.054
1033.10	-0.052
1033.26	-0.051
1033.42	-0.050
1033.58	-0.048
1033.75	-0.045
1033.91	-0.044
1034.07	-0.044
1034.24	-0.043
1034.40	-0.043
1034.56	-0.042
1034.72	-0.042
1034.89	-0.044
1035.05	-0.043
1035.21	-0.043
1035.37	-0.045
1035.54	-0.046
1035.70	-0.045
1035.86	-0.044
1036.02	-0.043
1036.19	-0.042
1036.35	-0.042
1036.51	-0.041
1036.67	-0.041
1036.83	-0.041
1037.00	-0.040
1037.16	-0.040
1037.32	-0.040
1037.48	-0.041
1037.65	-0.041
1037.81	-0.040
1037.97	-0.040
1038.13	-0.040
1038.29	-0.039
1038.46	-0.038
1038.62	-0.039
1038.78	-0.040
1038.94	-0.040
1039.10	-0.039
1039.27	-0.038
1039.43	-0.039
1039.59	-0.037
1039.75	-0.037
1039.91	-0.036
1040.08	-0.037
1040.24	-0.037
1040.40	-0.037
1040.56	-0.035
1040.72	-0.035
1040.89	-0.034
1041.05	-0.035
1041.21	-0.034
1041.37	-0.036
1041.53	-0.035
1041.69	-0.035
1041.86	-0.035
1042.02	-0.035
1042.18	-0.033
1042.34	-0.033
1042.50	-0.033
1042.66	-0.033
1042.83	-0.031
1042.99	-0.032
1043.15	-0.032
1043.31	-0.031
1043.47	-0.032
1043.63	-0.032
1043.79	-0.033
1043.96	-0.032
1044.12	-0.032
1044.28	-0.032
1044.44	-0.031
1044.60	-0.032
1044.76	-0.032
1044.92	-0.033
1045.09	-0.032
1045.25	-0.031
1045.41	-0.030
1045.57	-0.029
1045.73	-0.029
1045.89	-0.031
1046.05	-0.030
1046.21	-0.030
1046.38	-0.031
1046.54	-0.030
1046.70	-0.044
1046.86	-0.028
>>>>>End Processed Spectral Data<<<<<
