SpectraSuite Data File
++++++++++++++++++++++++++++++++++++
Date: Mon May 06 13:30:21 CDT 2013
User: Students
Dark Spectrum Present: Yes
Reference Spectrum Present: Yes
Number of Sampled Component Spectra: 1
Spectrometers: USB4H00887
Integration Time (usec): 50000 (USB4H00887)
Spectra Averaged: 10 (USB4H00887)
Boxcar Smoothing: 5 (USB4H00887)
Correct for Electrical Dark: No (USB4H00887)
Strobe/Lamp Enabled: No (USB4H00887)
Correct for Detector Non-linearity: No (USB4H00887)
Correct for Stray Light: No (USB4H00887)
Number of Pixels in Processed Spectrum: 3648
>>>>>Begin Processed Spectral Data<<<<<
345.83	-0.000
346.05	-0.000
346.26	-0.000
346.48	-0.007
346.70	-0.000
346.92	-0.203
347.14	-0.301
347.35	-0.406
347.57	-0.448
347.79	-0.330
348.01	-0.365
348.23	-0.474
348.44	-0.548
348.66	-0.412
348.88	-0.246
349.10	-0.132
349.32	-0.081
349.53	-0.026
349.75	0.008
349.97	0.037
350.19	0.024
350.41	0.039
350.62	0.065
350.84	0.060
351.06	0.047
351.28	0.047
351.50	0.017
351.71	-0.028
351.93	-0.062
352.15	-0.055
352.37	-0.127
352.58	-0.152
352.80	-0.179
353.02	-0.170
353.24	-0.173
353.46	-0.190
353.67	-0.247
353.89	-0.239
354.11	-0.175
354.33	-0.159
354.54	-0.152
354.76	-0.083
354.98	-0.047
355.20	-0.040
355.41	-0.041
355.63	-0.051
355.85	-0.017
356.07	0.000
356.28	0.037
356.50	0.008
356.72	-0.017
356.94	-0.052
357.15	-0.048
357.37	-0.089
357.59	-0.100
357.81	-0.124
358.02	-0.095
358.24	-0.059
358.46	-0.051
358.68	-0.030
358.89	-0.035
359.11	-0.024
359.33	-0.001
359.55	-0.020
359.76	0.013
359.98	0.052
360.20	0.088
360.42	0.066
360.63	0.003
360.85	0.030
361.07	0.003
361.29	-0.003
361.50	-0.038
361.72	-0.037
361.94	-0.043
362.15	-0.073
362.37	-0.096
362.59	-0.087
362.81	-0.100
363.02	-0.110
363.24	-0.127
363.46	-0.111
363.68	-0.107
363.89	-0.078
364.11	-0.065
364.33	-0.073
364.54	-0.034
364.76	-0.018
364.98	-0.035
365.20	-0.010
365.41	0.029
365.63	0.038
365.85	0.013
366.06	0.029
366.28	0.020
366.50	0.028
366.71	0.072
366.93	0.048
367.15	0.075
367.37	0.083
367.58	0.088
367.80	0.091
368.02	0.106
368.23	0.127
368.45	0.120
368.67	0.151
368.88	0.132
369.10	0.124
369.32	0.125
369.53	0.090
369.75	0.101
369.97	0.101
370.19	0.067
370.40	0.066
370.62	0.016
370.84	0.033
371.05	0.033
371.27	0.057
371.49	0.076
371.70	0.086
371.92	0.099
372.14	0.101
372.35	0.108
372.57	0.151
372.79	0.097
373.00	0.122
373.22	0.097
373.44	0.087
373.65	0.103
373.87	0.098
374.09	0.114
374.30	0.114
374.52	0.100
374.74	0.096
374.95	0.081
375.17	0.115
375.39	0.129
375.60	0.133
375.82	0.119
376.04	0.130
376.25	0.130
376.47	0.108
376.68	0.092
376.90	0.087
377.12	0.126
377.33	0.117
377.55	0.140
377.77	0.100
377.98	0.134
378.20	0.176
378.42	0.179
378.63	0.189
378.85	0.207
379.07	0.216
379.28	0.220
379.50	0.166
379.71	0.185
379.93	0.175
380.15	0.193
380.36	0.154
380.58	0.137
380.80	0.114
381.01	0.119
381.23	0.096
381.44	0.093
381.66	0.110
381.88	0.119
382.09	0.135
382.31	0.135
382.53	0.164
382.74	0.205
382.96	0.217
383.17	0.207
383.39	0.172
383.61	0.207
383.82	0.187
384.04	0.203
384.25	0.224
384.47	0.224
384.69	0.232
384.90	0.199
385.12	0.172
385.33	0.157
385.55	0.170
385.77	0.155
385.98	0.121
386.20	0.158
386.41	0.146
386.63	0.155
386.85	0.143
387.06	0.129
387.28	0.167
387.49	0.198
387.71	0.219
387.93	0.229
388.14	0.268
388.36	0.309
388.57	0.317
388.79	0.333
389.01	0.341
389.22	0.375
389.44	0.380
389.65	0.397
389.87	0.402
390.08	0.408
390.30	0.436
390.52	0.418
390.73	0.401
390.95	0.404
391.16	0.390
391.38	0.378
391.59	0.345
391.81	0.376
392.03	0.357
392.24	0.347
392.46	0.333
392.67	0.304
392.89	0.289
393.10	0.289
393.32	0.294
393.53	0.329
393.75	0.313
393.97	0.349
394.18	0.365
394.40	0.351
394.61	0.350
394.83	0.377
395.04	0.420
395.26	0.459
395.47	0.481
395.69	0.478
395.91	0.440
396.12	0.470
396.34	0.459
396.55	0.434
396.77	0.424
396.98	0.421
397.20	0.414
397.41	0.410
397.63	0.409
397.84	0.391
398.06	0.387
398.27	0.385
398.49	0.381
398.71	0.377
398.92	0.400
399.14	0.425
399.35	0.413
399.57	0.409
399.78	0.405
400.00	0.404
400.21	0.406
400.43	0.413
400.64	0.425
400.86	0.426
401.07	0.424
401.29	0.387
401.50	0.381
401.72	0.390
401.93	0.396
402.15	0.392
402.36	0.393
402.58	0.414
402.79	0.440
403.01	0.422
403.22	0.424
403.44	0.453
403.65	0.475
403.87	0.480
404.08	0.499
404.30	0.502
404.51	0.501
404.73	0.529
404.94	0.546
405.16	0.533
405.37	0.556
405.59	0.559
405.80	0.522
406.02	0.538
406.23	0.559
406.45	0.550
406.66	0.541
406.88	0.552
407.09	0.524
407.31	0.522
407.52	0.520
407.74	0.520
407.95	0.527
408.17	0.544
408.38	0.547
408.60	0.541
408.81	0.526
409.03	0.532
409.24	0.535
409.45	0.546
409.67	0.530
409.88	0.524
410.10	0.531
410.31	0.542
410.53	0.569
410.74	0.590
410.96	0.591
411.17	0.619
411.39	0.605
411.60	0.618
411.82	0.612
412.03	0.629
412.24	0.622
412.46	0.623
412.67	0.612
412.89	0.618
413.10	0.623
413.32	0.612
413.53	0.634
413.75	0.653
413.96	0.637
414.17	0.662
414.39	0.677
414.60	0.687
414.82	0.701
415.03	0.704
415.25	0.673
415.46	0.661
415.68	0.682
415.89	0.685
416.10	0.717
416.32	0.727
416.53	0.702
416.75	0.672
416.96	0.661
417.18	0.651
417.39	0.654
417.60	0.654
417.82	0.657
418.03	0.631
418.25	0.628
418.46	0.607
418.67	0.586
418.89	0.588
419.10	0.603
419.32	0.613
419.53	0.616
419.75	0.623
419.96	0.627
420.17	0.604
420.39	0.617
420.60	0.615
420.82	0.624
421.03	0.654
421.24	0.652
421.46	0.626
421.67	0.628
421.89	0.631
422.10	0.618
422.31	0.626
422.53	0.642
422.74	0.654
422.96	0.649
423.17	0.645
423.38	0.641
423.60	0.654
423.81	0.670
424.03	0.671
424.24	0.675
424.45	0.695
424.67	0.676
424.88	0.675
425.09	0.675
425.31	0.671
425.52	0.679
425.74	0.685
425.95	0.683
426.16	0.694
426.38	0.699
426.59	0.717
426.80	0.724
427.02	0.748
427.23	0.757
427.45	0.770
427.66	0.794
427.87	0.787
428.09	0.796
428.30	0.782
428.51	0.789
428.73	0.788
428.94	0.773
429.15	0.744
429.37	0.733
429.58	0.743
429.79	0.746
430.01	0.747
430.22	0.757
430.44	0.734
430.65	0.759
430.86	0.753
431.08	0.754
431.29	0.747
431.50	0.752
431.72	0.773
431.93	0.746
432.14	0.742
432.36	0.727
432.57	0.740
432.78	0.755
433.00	0.739
433.21	0.738
433.42	0.737
433.64	0.765
433.85	0.772
434.06	0.764
434.28	0.777
434.49	0.771
434.70	0.764
434.92	0.754
435.13	0.767
435.34	0.779
435.56	0.777
435.77	0.779
435.98	0.770
436.20	0.785
436.41	0.777
436.62	0.779
436.83	0.787
437.05	0.814
437.26	0.824
437.47	0.811
437.69	0.808
437.90	0.816
438.11	0.821
438.33	0.809
438.54	0.825
438.75	0.835
438.97	0.835
439.18	0.830
439.39	0.824
439.60	0.803
439.82	0.801
440.03	0.794
440.24	0.791
440.46	0.797
440.67	0.798
440.88	0.776
441.10	0.785
441.31	0.785
441.52	0.775
441.73	0.770
441.95	0.771
442.16	0.769
442.37	0.778
442.58	0.784
442.80	0.786
443.01	0.789
443.22	0.798
443.44	0.794
443.65	0.802
443.86	0.809
444.07	0.819
444.29	0.842
444.50	0.842
444.71	0.847
444.92	0.837
445.14	0.835
445.35	0.842
445.56	0.834
445.78	0.824
445.99	0.822
446.20	0.814
446.41	0.806
446.63	0.796
446.84	0.806
447.05	0.796
447.26	0.798
447.48	0.786
447.69	0.787
447.90	0.788
448.11	0.788
448.33	0.776
448.54	0.785
448.75	0.782
448.96	0.790
449.18	0.791
449.39	0.786
449.60	0.785
449.81	0.782
450.03	0.777
450.24	0.782
450.45	0.787
450.66	0.790
450.87	0.789
451.09	0.783
451.30	0.765
451.51	0.753
451.72	0.752
451.94	0.758
452.15	0.766
452.36	0.765
452.57	0.761
452.78	0.753
453.00	0.756
453.21	0.755
453.42	0.753
453.63	0.752
453.85	0.755
454.06	0.761
454.27	0.758
454.48	0.760
454.69	0.763
454.91	0.766
455.12	0.773
455.33	0.768
455.54	0.771
455.75	0.774
455.97	0.777
456.18	0.780
456.39	0.774
456.60	0.767
456.81	0.762
457.03	0.755
457.24	0.751
457.45	0.757
457.66	0.759
457.87	0.754
458.09	0.753
458.30	0.758
458.51	0.757
458.72	0.762
458.93	0.758
459.15	0.762
459.36	0.761
459.57	0.761
459.78	0.751
459.99	0.754
460.20	0.754
460.42	0.758
460.63	0.767
460.84	0.771
461.05	0.771
461.26	0.771
461.47	0.771
461.69	0.771
461.90	0.772
462.11	0.775
462.32	0.771
462.53	0.772
462.74	0.768
462.96	0.761
463.17	0.751
463.38	0.755
463.59	0.760
463.80	0.756
464.01	0.752
464.23	0.751
464.44	0.753
464.65	0.758
464.86	0.753
465.07	0.753
465.28	0.749
465.49	0.749
465.71	0.750
465.92	0.751
466.13	0.744
466.34	0.747
466.55	0.745
466.76	0.742
466.97	0.740
467.19	0.741
467.40	0.743
467.61	0.745
467.82	0.751
468.03	0.739
468.24	0.734
468.45	0.742
468.66	0.743
468.88	0.743
469.09	0.741
469.30	0.739
469.51	0.740
469.72	0.741
469.93	0.742
470.14	0.740
470.35	0.745
470.57	0.744
470.78	0.746
470.99	0.744
471.20	0.738
471.41	0.738
471.62	0.740
471.83	0.739
472.04	0.736
472.25	0.732
472.47	0.728
472.68	0.726
472.89	0.731
473.10	0.728
473.31	0.725
473.52	0.731
473.73	0.730
473.94	0.728
474.15	0.731
474.36	0.733
474.57	0.736
474.79	0.733
475.00	0.734
475.21	0.731
475.42	0.731
475.63	0.726
475.84	0.722
476.05	0.720
476.26	0.717
476.47	0.715
476.68	0.711
476.89	0.707
477.10	0.711
477.32	0.709
477.53	0.707
477.74	0.704
477.95	0.710
478.16	0.708
478.37	0.709
478.58	0.708
478.79	0.704
479.00	0.703
479.21	0.699
479.42	0.699
479.63	0.697
479.84	0.698
480.05	0.700
480.26	0.700
480.47	0.701
480.69	0.697
480.90	0.697
481.11	0.699
481.32	0.700
481.53	0.699
481.74	0.697
481.95	0.697
482.16	0.696
482.37	0.692
482.58	0.690
482.79	0.688
483.00	0.691
483.21	0.691
483.42	0.691
483.63	0.691
483.84	0.692
484.05	0.693
484.26	0.695
484.47	0.694
484.68	0.696
484.89	0.696
485.10	0.696
485.31	0.695
485.52	0.694
485.73	0.693
485.94	0.692
486.15	0.692
486.37	0.688
486.58	0.685
486.79	0.685
487.00	0.685
487.21	0.685
487.42	0.685
487.63	0.684
487.84	0.684
488.05	0.683
488.26	0.682
488.47	0.682
488.68	0.683
488.89	0.681
489.10	0.681
489.31	0.679
489.52	0.677
489.73	0.677
489.94	0.677
490.15	0.677
490.36	0.676
490.57	0.676
490.78	0.676
490.99	0.674
491.20	0.675
491.41	0.675
491.62	0.675
491.83	0.674
492.04	0.674
492.25	0.672
492.45	0.671
492.66	0.673
492.87	0.671
493.08	0.670
493.29	0.670
493.50	0.668
493.71	0.667
493.92	0.669
494.13	0.672
494.34	0.672
494.55	0.674
494.76	0.673
494.97	0.673
495.18	0.674
495.39	0.675
495.60	0.675
495.81	0.676
496.02	0.675
496.23	0.674
496.44	0.674
496.65	0.675
496.86	0.672
497.07	0.674
497.28	0.672
497.49	0.672
497.70	0.672
497.91	0.671
498.12	0.672
498.32	0.672
498.53	0.670
498.74	0.668
498.95	0.665
499.16	0.665
499.37	0.666
499.58	0.667
499.79	0.667
500.00	0.666
500.21	0.667
500.42	0.665
500.63	0.665
500.84	0.666
501.05	0.668
501.26	0.667
501.46	0.667
501.67	0.666
501.88	0.664
502.09	0.664
502.30	0.663
502.51	0.663
502.72	0.664
502.93	0.664
503.14	0.665
503.35	0.664
503.56	0.665
503.77	0.666
503.97	0.666
504.18	0.666
504.39	0.667
504.60	0.667
504.81	0.667
505.02	0.667
505.23	0.668
505.44	0.668
505.65	0.669
505.86	0.669
506.07	0.669
506.27	0.667
506.48	0.668
506.69	0.666
506.90	0.667
507.11	0.668
507.32	0.666
507.53	0.666
507.74	0.663
507.95	0.662
508.15	0.663
508.36	0.662
508.57	0.664
508.78	0.661
508.99	0.662
509.20	0.660
509.41	0.657
509.62	0.657
509.82	0.657
510.03	0.658
510.24	0.658
510.45	0.656
510.66	0.655
510.87	0.655
511.08	0.656
511.29	0.654
511.49	0.654
511.70	0.655
511.91	0.654
512.12	0.653
512.33	0.653
512.54	0.651
512.75	0.652
512.95	0.652
513.16	0.649
513.37	0.649
513.58	0.648
513.79	0.646
514.00	0.645
514.20	0.643
514.41	0.643
514.62	0.643
514.83	0.641
515.04	0.639
515.25	0.637
515.46	0.638
515.66	0.638
515.87	0.638
516.08	0.639
516.29	0.639
516.50	0.639
516.71	0.638
516.91	0.637
517.12	0.637
517.33	0.637
517.54	0.636
517.75	0.636
517.95	0.634
518.16	0.631
518.37	0.630
518.58	0.628
518.79	0.627
519.00	0.625
519.20	0.624
519.41	0.624
519.62	0.622
519.83	0.622
520.04	0.620
520.24	0.619
520.45	0.618
520.66	0.617
520.87	0.614
521.08	0.612
521.28	0.610
521.49	0.609
521.70	0.607
521.91	0.606
522.12	0.604
522.32	0.602
522.53	0.602
522.74	0.601
522.95	0.599
523.16	0.600
523.36	0.598
523.57	0.598
523.78	0.596
523.99	0.594
524.20	0.593
524.40	0.591
524.61	0.588
524.82	0.586
525.03	0.586
525.23	0.585
525.44	0.583
525.65	0.582
525.86	0.581
526.06	0.579
526.27	0.578
526.48	0.575
526.69	0.574
526.90	0.574
527.10	0.573
527.31	0.571
527.52	0.569
527.73	0.568
527.93	0.567
528.14	0.565
528.35	0.564
528.56	0.563
528.76	0.561
528.97	0.560
529.18	0.558
529.39	0.555
529.59	0.554
529.80	0.551
530.01	0.550
530.22	0.547
530.42	0.545
530.63	0.543
530.84	0.541
531.05	0.540
531.25	0.538
531.46	0.537
531.67	0.536
531.88	0.533
532.08	0.532
532.29	0.530
532.50	0.530
532.70	0.529
532.91	0.527
533.12	0.527
533.33	0.525
533.53	0.524
533.74	0.522
533.95	0.520
534.15	0.519
534.36	0.518
534.57	0.517
534.78	0.515
534.98	0.513
535.19	0.510
535.40	0.509
535.60	0.507
535.81	0.505
536.02	0.504
536.23	0.502
536.43	0.501
536.64	0.499
536.85	0.497
537.05	0.496
537.26	0.495
537.47	0.494
537.67	0.493
537.88	0.491
538.09	0.490
538.30	0.489
538.50	0.487
538.71	0.484
538.92	0.482
539.12	0.480
539.33	0.478
539.54	0.476
539.74	0.473
539.95	0.471
540.16	0.469
540.36	0.467
540.57	0.465
540.78	0.464
540.98	0.462
541.19	0.461
541.40	0.459
541.60	0.458
541.81	0.457
542.02	0.456
542.22	0.454
542.43	0.453
542.64	0.451
542.84	0.449
543.05	0.447
543.26	0.446
543.46	0.443
543.67	0.441
543.88	0.440
544.08	0.437
544.29	0.435
544.50	0.433
544.70	0.431
544.91	0.429
545.12	0.427
545.32	0.425
545.53	0.423
545.74	0.421
545.94	0.419
546.15	0.417
546.35	0.416
546.56	0.414
546.77	0.412
546.97	0.410
547.18	0.408
547.39	0.407
547.59	0.406
547.80	0.404
548.01	0.403
548.21	0.401
548.42	0.400
548.62	0.398
548.83	0.396
549.04	0.395
549.24	0.392
549.45	0.390
549.65	0.388
549.86	0.386
550.07	0.385
550.27	0.383
550.48	0.380
550.69	0.378
550.89	0.376
551.10	0.374
551.30	0.372
551.51	0.370
551.72	0.368
551.92	0.366
552.13	0.363
552.33	0.361
552.54	0.358
552.75	0.357
552.95	0.355
553.16	0.353
553.36	0.351
553.57	0.348
553.78	0.346
553.98	0.344
554.19	0.343
554.39	0.341
554.60	0.339
554.80	0.336
555.01	0.334
555.22	0.332
555.42	0.330
555.63	0.327
555.83	0.325
556.04	0.323
556.25	0.321
556.45	0.318
556.66	0.316
556.86	0.315
557.07	0.312
557.27	0.310
557.48	0.308
557.68	0.305
557.89	0.304
558.10	0.302
558.30	0.299
558.51	0.297
558.71	0.294
558.92	0.292
559.12	0.289
559.33	0.287
559.54	0.285
559.74	0.283
559.95	0.281
560.15	0.279
560.36	0.277
560.56	0.275
560.77	0.273
560.97	0.271
561.18	0.268
561.38	0.266
561.59	0.265
561.79	0.263
562.00	0.261
562.21	0.259
562.41	0.256
562.62	0.254
562.82	0.253
563.03	0.251
563.23	0.249
563.44	0.247
563.64	0.245
563.85	0.243
564.05	0.241
564.26	0.240
564.46	0.237
564.67	0.236
564.87	0.233
565.08	0.231
565.28	0.229
565.49	0.227
565.69	0.226
565.90	0.223
566.10	0.221
566.31	0.219
566.51	0.216
566.72	0.215
566.92	0.213
567.13	0.211
567.33	0.209
567.54	0.207
567.74	0.205
567.95	0.204
568.15	0.202
568.36	0.200
568.56	0.199
568.77	0.197
568.97	0.196
569.18	0.194
569.38	0.192
569.59	0.190
569.79	0.188
570.00	0.186
570.20	0.184
570.41	0.182
570.61	0.181
570.82	0.179
571.02	0.177
571.23	0.175
571.43	0.173
571.64	0.172
571.84	0.170
572.05	0.169
572.25	0.167
572.45	0.166
572.66	0.164
572.86	0.162
573.07	0.161
573.27	0.160
573.48	0.158
573.68	0.157
573.89	0.155
574.09	0.153
574.30	0.151
574.50	0.150
574.70	0.148
574.91	0.146
575.11	0.145
575.32	0.143
575.52	0.142
575.73	0.140
575.93	0.139
576.14	0.137
576.34	0.136
576.54	0.135
576.75	0.133
576.95	0.132
577.16	0.131
577.36	0.130
577.57	0.128
577.77	0.127
577.97	0.125
578.18	0.124
578.38	0.122
578.59	0.121
578.79	0.120
579.00	0.118
579.20	0.117
579.40	0.115
579.61	0.114
579.81	0.113
580.02	0.112
580.22	0.111
580.42	0.110
580.63	0.109
580.83	0.108
581.04	0.106
581.24	0.106
581.45	0.105
581.65	0.104
581.85	0.103
582.06	0.102
582.26	0.101
582.47	0.100
582.67	0.099
582.87	0.098
583.08	0.096
583.28	0.095
583.48	0.094
583.69	0.093
583.89	0.093
584.10	0.091
584.30	0.090
584.50	0.090
584.71	0.088
584.91	0.087
585.12	0.086
585.32	0.085
585.52	0.085
585.73	0.084
585.93	0.083
586.13	0.082
586.34	0.081
586.54	0.080
586.75	0.079
586.95	0.079
587.15	0.078
587.36	0.077
587.56	0.076
587.76	0.075
587.97	0.074
588.17	0.074
588.37	0.073
588.58	0.072
588.78	0.072
588.98	0.072
589.19	0.071
589.39	0.070
589.60	0.069
589.80	0.069
590.00	0.068
590.21	0.067
590.41	0.066
590.61	0.065
590.82	0.064
591.02	0.063
591.22	0.062
591.43	0.062
591.63	0.061
591.83	0.061
592.04	0.060
592.24	0.060
592.44	0.059
592.65	0.059
592.85	0.058
593.05	0.058
593.26	0.057
593.46	0.057
593.66	0.056
593.86	0.055
594.07	0.054
594.27	0.054
594.47	0.053
594.68	0.053
594.88	0.052
595.08	0.052
595.29	0.051
595.49	0.051
595.69	0.050
595.90	0.050
596.10	0.050
596.30	0.049
596.50	0.049
596.71	0.049
596.91	0.048
597.11	0.048
597.32	0.047
597.52	0.047
597.72	0.047
597.93	0.047
598.13	0.047
598.33	0.046
598.53	0.046
598.74	0.045
598.94	0.044
599.14	0.044
599.35	0.044
599.55	0.045
599.75	0.044
599.95	0.044
600.16	0.043
600.36	0.043
600.56	0.043
600.76	0.043
600.97	0.043
601.17	0.043
601.37	0.042
601.58	0.041
601.78	0.041
601.98	0.040
602.18	0.040
602.39	0.040
602.59	0.040
602.79	0.039
602.99	0.039
603.20	0.039
603.40	0.038
603.60	0.039
603.80	0.039
604.01	0.038
604.21	0.038
604.41	0.038
604.61	0.038
604.82	0.038
605.02	0.038
605.22	0.038
605.42	0.038
605.62	0.038
605.83	0.038
606.03	0.038
606.23	0.038
606.43	0.038
606.64	0.038
606.84	0.038
607.04	0.037
607.24	0.037
607.45	0.037
607.65	0.037
607.85	0.037
608.05	0.036
608.25	0.036
608.46	0.036
608.66	0.036
608.86	0.036
609.06	0.036
609.26	0.036
609.47	0.036
609.67	0.036
609.87	0.036
610.07	0.036
610.28	0.035
610.48	0.035
610.68	0.035
610.88	0.035
611.08	0.035
611.29	0.035
611.49	0.035
611.69	0.034
611.89	0.034
612.09	0.034
612.29	0.034
612.50	0.034
612.70	0.034
612.90	0.034
613.10	0.034
613.30	0.034
613.51	0.034
613.71	0.034
613.91	0.034
614.11	0.034
614.31	0.034
614.51	0.033
614.72	0.033
614.92	0.033
615.12	0.033
615.32	0.033
615.52	0.033
615.72	0.033
615.93	0.033
616.13	0.032
616.33	0.032
616.53	0.033
616.73	0.033
616.93	0.033
617.14	0.032
617.34	0.032
617.54	0.033
617.74	0.032
617.94	0.032
618.14	0.033
618.34	0.033
618.55	0.033
618.75	0.033
618.95	0.032
619.15	0.032
619.35	0.032
619.55	0.033
619.75	0.033
619.96	0.033
620.16	0.032
620.36	0.032
620.56	0.032
620.76	0.032
620.96	0.032
621.16	0.032
621.36	0.032
621.57	0.032
621.77	0.031
621.97	0.031
622.17	0.031
622.37	0.031
622.57	0.032
622.77	0.032
622.97	0.032
623.18	0.032
623.38	0.032
623.58	0.032
623.78	0.032
623.98	0.032
624.18	0.032
624.38	0.032
624.58	0.032
624.78	0.033
624.98	0.033
625.19	0.032
625.39	0.032
625.59	0.032
625.79	0.032
625.99	0.032
626.19	0.032
626.39	0.031
626.59	0.032
626.79	0.031
626.99	0.031
627.19	0.031
627.40	0.031
627.60	0.031
627.80	0.031
628.00	0.032
628.20	0.032
628.40	0.032
628.60	0.032
628.80	0.032
629.00	0.031
629.20	0.032
629.40	0.031
629.60	0.031
629.80	0.031
630.00	0.031
630.20	0.031
630.41	0.031
630.61	0.031
630.81	0.031
631.01	0.031
631.21	0.031
631.41	0.031
631.61	0.031
631.81	0.031
632.01	0.031
632.21	0.031
632.41	0.031
632.61	0.031
632.81	0.031
633.01	0.031
633.21	0.031
633.41	0.031
633.61	0.031
633.81	0.031
634.01	0.031
634.21	0.030
634.41	0.030
634.61	0.030
634.81	0.030
635.01	0.030
635.22	0.031
635.42	0.031
635.62	0.031
635.82	0.031
636.02	0.031
636.22	0.031
636.42	0.031
636.62	0.031
636.82	0.031
637.02	0.031
637.22	0.031
637.42	0.031
637.62	0.031
637.82	0.031
638.02	0.031
638.22	0.031
638.42	0.031
638.62	0.031
638.82	0.031
639.02	0.031
639.22	0.031
639.42	0.030
639.62	0.030
639.82	0.030
640.02	0.030
640.22	0.030
640.42	0.030
640.62	0.030
640.82	0.030
641.02	0.030
641.22	0.031
641.42	0.031
641.61	0.031
641.81	0.031
642.01	0.031
642.21	0.031
642.41	0.031
642.61	0.032
642.81	0.032
643.01	0.031
643.21	0.032
643.41	0.031
643.61	0.031
643.81	0.031
644.01	0.031
644.21	0.031
644.41	0.031
644.61	0.030
644.81	0.030
645.01	0.031
645.21	0.031
645.41	0.031
645.61	0.031
645.81	0.031
646.01	0.031
646.21	0.030
646.40	0.031
646.60	0.031
646.80	0.031
647.00	0.031
647.20	0.031
647.40	0.030
647.60	0.030
647.80	0.031
648.00	0.030
648.20	0.030
648.40	0.030
648.60	0.030
648.80	0.030
649.00	0.030
649.20	0.030
649.39	0.030
649.59	0.030
649.79	0.030
649.99	0.030
650.19	0.030
650.39	0.030
650.59	0.031
650.79	0.031
650.99	0.031
651.19	0.031
651.39	0.030
651.58	0.030
651.78	0.030
651.98	0.030
652.18	0.030
652.38	0.030
652.58	0.030
652.78	0.030
652.98	0.030
653.18	0.030
653.38	0.030
653.57	0.030
653.77	0.030
653.97	0.030
654.17	0.030
654.37	0.030
654.57	0.030
654.77	0.030
654.97	0.030
655.16	0.030
655.36	0.030
655.56	0.030
655.76	0.030
655.96	0.030
656.16	0.029
656.36	0.029
656.56	0.029
656.75	0.029
656.95	0.029
657.15	0.029
657.35	0.029
657.55	0.029
657.75	0.029
657.95	0.029
658.14	0.029
658.34	0.029
658.54	0.029
658.74	0.029
658.94	0.029
659.14	0.029
659.34	0.029
659.53	0.029
659.73	0.029
659.93	0.029
660.13	0.029
660.33	0.029
660.53	0.030
660.72	0.030
660.92	0.029
661.12	0.030
661.32	0.030
661.52	0.030
661.72	0.030
661.91	0.029
662.11	0.030
662.31	0.030
662.51	0.030
662.71	0.030
662.90	0.029
663.10	0.029
663.30	0.029
663.50	0.029
663.70	0.028
663.90	0.029
664.09	0.029
664.29	0.029
664.49	0.029
664.69	0.029
664.89	0.029
665.08	0.029
665.28	0.029
665.48	0.029
665.68	0.030
665.88	0.030
666.07	0.029
666.27	0.030
666.47	0.029
666.67	0.029
666.87	0.029
667.06	0.029
667.26	0.029
667.46	0.029
667.66	0.029
667.85	0.029
668.05	0.029
668.25	0.029
668.45	0.029
668.65	0.029
668.84	0.029
669.04	0.029
669.24	0.029
669.44	0.029
669.63	0.029
669.83	0.029
670.03	0.029
670.23	0.029
670.42	0.029
670.62	0.029
670.82	0.029
671.02	0.029
671.22	0.029
671.41	0.029
671.61	0.029
671.81	0.029
672.01	0.029
672.20	0.029
672.40	0.029
672.60	0.029
672.80	0.029
672.99	0.029
673.19	0.029
673.39	0.029
673.58	0.029
673.78	0.029
673.98	0.029
674.18	0.029
674.37	0.029
674.57	0.029
674.77	0.029
674.97	0.029
675.16	0.029
675.36	0.029
675.56	0.029
675.75	0.029
675.95	0.029
676.15	0.029
676.35	0.029
676.54	0.029
676.74	0.029
676.94	0.029
677.13	0.029
677.33	0.029
677.53	0.029
677.73	0.029
677.92	0.029
678.12	0.029
678.32	0.029
678.51	0.029
678.71	0.029
678.91	0.029
679.11	0.029
679.30	0.029
679.50	0.029
679.70	0.029
679.89	0.028
680.09	0.029
680.29	0.028
680.48	0.029
680.68	0.029
680.88	0.029
681.07	0.029
681.27	0.029
681.47	0.029
681.66	0.029
681.86	0.029
682.06	0.029
682.25	0.029
682.45	0.029
682.65	0.029
682.84	0.029
683.04	0.029
683.24	0.029
683.43	0.028
683.63	0.028
683.83	0.029
684.02	0.029
684.22	0.029
684.42	0.029
684.61	0.029
684.81	0.029
685.01	0.029
685.20	0.029
685.40	0.029
685.60	0.029
685.79	0.029
685.99	0.029
686.19	0.029
686.38	0.029
686.58	0.029
686.77	0.029
686.97	0.028
687.17	0.029
687.36	0.029
687.56	0.028
687.76	0.028
687.95	0.028
688.15	0.028
688.34	0.028
688.54	0.028
688.74	0.028
688.93	0.028
689.13	0.028
689.33	0.028
689.52	0.029
689.72	0.028
689.91	0.028
690.11	0.028
690.31	0.028
690.50	0.028
690.70	0.029
690.89	0.029
691.09	0.029
691.29	0.029
691.48	0.029
691.68	0.028
691.87	0.029
692.07	0.029
692.27	0.029
692.46	0.029
692.66	0.029
692.85	0.029
693.05	0.029
693.25	0.029
693.44	0.029
693.64	0.029
693.83	0.029
694.03	0.029
694.22	0.029
694.42	0.029
694.62	0.029
694.81	0.029
695.01	0.029
695.20	0.028
695.40	0.028
695.59	0.029
695.79	0.029
695.99	0.029
696.18	0.028
696.38	0.028
696.57	0.028
696.77	0.028
696.96	0.029
697.16	0.028
697.36	0.029
697.55	0.029
697.75	0.029
697.94	0.029
698.14	0.028
698.33	0.029
698.53	0.029
698.72	0.028
698.92	0.028
699.11	0.028
699.31	0.028
699.51	0.028
699.70	0.028
699.90	0.028
700.09	0.028
700.29	0.028
700.48	0.028
700.68	0.028
700.87	0.028
701.07	0.028
701.26	0.028
701.46	0.028
701.65	0.028
701.85	0.028
702.04	0.028
702.24	0.028
702.43	0.028
702.63	0.028
702.82	0.028
703.02	0.028
703.21	0.028
703.41	0.028
703.60	0.028
703.80	0.028
703.99	0.028
704.19	0.028
704.38	0.028
704.58	0.028
704.77	0.028
704.97	0.028
705.16	0.028
705.36	0.027
705.55	0.028
705.75	0.028
705.94	0.028
706.14	0.028
706.33	0.027
706.53	0.028
706.72	0.028
706.92	0.028
707.11	0.028
707.31	0.028
707.50	0.028
707.70	0.028
707.89	0.028
708.09	0.028
708.28	0.029
708.48	0.028
708.67	0.028
708.86	0.028
709.06	0.028
709.25	0.028
709.45	0.028
709.64	0.028
709.84	0.028
710.03	0.028
710.23	0.028
710.42	0.028
710.62	0.028
710.81	0.028
711.00	0.028
711.20	0.028
711.39	0.028
711.59	0.027
711.78	0.027
711.98	0.027
712.17	0.028
712.37	0.028
712.56	0.028
712.75	0.027
712.95	0.028
713.14	0.028
713.34	0.028
713.53	0.027
713.73	0.027
713.92	0.027
714.11	0.027
714.31	0.027
714.50	0.027
714.70	0.026
714.89	0.027
715.08	0.026
715.28	0.027
715.47	0.027
715.67	0.027
715.86	0.027
716.06	0.027
716.25	0.027
716.44	0.027
716.64	0.027
716.83	0.027
717.03	0.026
717.22	0.026
717.41	0.026
717.61	0.026
717.80	0.025
717.99	0.025
718.19	0.025
718.38	0.025
718.58	0.025
718.77	0.025
718.96	0.025
719.16	0.025
719.35	0.025
719.55	0.025
719.74	0.025
719.93	0.026
720.13	0.026
720.32	0.026
720.51	0.026
720.71	0.026
720.90	0.026
721.10	0.026
721.29	0.026
721.48	0.026
721.68	0.026
721.87	0.026
722.06	0.025
722.26	0.025
722.45	0.025
722.64	0.025
722.84	0.025
723.03	0.025
723.22	0.025
723.42	0.025
723.61	0.025
723.80	0.025
724.00	0.024
724.19	0.024
724.38	0.024
724.58	0.024
724.77	0.024
724.96	0.024
725.16	0.024
725.35	0.024
725.54	0.024
725.74	0.024
725.93	0.024
726.12	0.024
726.32	0.024
726.51	0.023
726.70	0.023
726.90	0.023
727.09	0.023
727.28	0.023
727.48	0.023
727.67	0.023
727.86	0.023
728.06	0.023
728.25	0.023
728.44	0.022
728.64	0.023
728.83	0.023
729.02	0.023
729.21	0.022
729.41	0.022
729.60	0.022
729.79	0.022
729.99	0.022
730.18	0.022
730.37	0.021
730.56	0.022
730.76	0.021
730.95	0.021
731.14	0.021
731.34	0.021
731.53	0.021
731.72	0.021
731.91	0.021
732.11	0.021
732.30	0.021
732.49	0.021
732.69	0.021
732.88	0.021
733.07	0.021
733.26	0.021
733.46	0.021
733.65	0.020
733.84	0.020
734.03	0.020
734.23	0.020
734.42	0.020
734.61	0.020
734.80	0.020
735.00	0.020
735.19	0.020
735.38	0.020
735.57	0.020
735.77	0.020
735.96	0.020
736.15	0.020
736.34	0.020
736.54	0.020
736.73	0.020
736.92	0.020
737.11	0.020
737.31	0.020
737.50	0.020
737.69	0.020
737.88	0.020
738.07	0.020
738.27	0.020
738.46	0.020
738.65	0.020
738.84	0.020
739.04	0.020
739.23	0.020
739.42	0.020
739.61	0.020
739.80	0.020
740.00	0.020
740.19	0.020
740.38	0.020
740.57	0.020
740.76	0.020
740.96	0.020
741.15	0.020
741.34	0.020
741.53	0.020
741.72	0.020
741.92	0.020
742.11	0.020
742.30	0.020
742.49	0.020
742.68	0.020
742.88	0.020
743.07	0.020
743.26	0.020
743.45	0.020
743.64	0.020
743.84	0.020
744.03	0.020
744.22	0.020
744.41	0.020
744.60	0.021
744.79	0.021
744.99	0.020
745.18	0.021
745.37	0.021
745.56	0.021
745.75	0.021
745.94	0.021
746.14	0.021
746.33	0.021
746.52	0.021
746.71	0.021
746.90	0.021
747.09	0.021
747.28	0.020
747.48	0.021
747.67	0.021
747.86	0.021
748.05	0.021
748.24	0.021
748.43	0.021
748.62	0.021
748.82	0.021
749.01	0.021
749.20	0.021
749.39	0.021
749.58	0.021
749.77	0.021
749.96	0.021
750.16	0.021
750.35	0.022
750.54	0.021
750.73	0.022
750.92	0.022
751.11	0.022
751.30	0.022
751.49	0.022
751.68	0.022
751.88	0.022
752.07	0.022
752.26	0.022
752.45	0.022
752.64	0.022
752.83	0.022
753.02	0.022
753.21	0.022
753.40	0.022
753.60	0.022
753.79	0.022
753.98	0.022
754.17	0.023
754.36	0.023
754.55	0.023
754.74	0.023
754.93	0.023
755.12	0.023
755.31	0.023
755.50	0.022
755.70	0.022
755.89	0.022
756.08	0.023
756.27	0.023
756.46	0.023
756.65	0.023
756.84	0.023
757.03	0.024
757.22	0.023
757.41	0.024
757.60	0.024
757.79	0.024
757.98	0.024
758.17	0.023
758.36	0.023
758.56	0.024
758.75	0.024
758.94	0.024
759.13	0.024
759.32	0.024
759.51	0.024
759.70	0.023
759.89	0.023
760.08	0.023
760.27	0.023
760.46	0.023
760.65	0.023
760.84	0.023
761.03	0.023
761.22	0.023
761.41	0.023
761.60	0.023
761.79	0.023
761.98	0.024
762.17	0.024
762.36	0.024
762.55	0.024
762.74	0.024
762.93	0.024
763.12	0.024
763.31	0.024
763.50	0.024
763.69	0.024
763.88	0.024
764.07	0.024
764.26	0.024
764.45	0.023
764.64	0.023
764.83	0.023
765.02	0.023
765.21	0.023
765.40	0.023
765.59	0.023
765.78	0.023
765.97	0.022
766.16	0.022
766.35	0.022
766.54	0.022
766.73	0.022
766.92	0.022
767.11	0.022
767.30	0.022
767.49	0.022
767.68	0.022
767.87	0.022
768.06	0.022
768.25	0.022
768.44	0.021
768.63	0.021
768.82	0.021
769.01	0.021
769.20	0.021
769.39	0.021
769.58	0.020
769.77	0.020
769.96	0.020
770.15	0.020
770.34	0.020
770.53	0.020
770.72	0.020
770.91	0.020
771.10	0.020
771.29	0.020
771.47	0.020
771.66	0.020
771.85	0.020
772.04	0.020
772.23	0.020
772.42	0.020
772.61	0.020
772.80	0.020
772.99	0.020
773.18	0.020
773.37	0.020
773.56	0.020
773.75	0.020
773.94	0.020
774.13	0.021
774.31	0.020
774.50	0.020
774.69	0.020
774.88	0.020
775.07	0.020
775.26	0.020
775.45	0.020
775.64	0.020
775.83	0.020
776.02	0.020
776.21	0.020
776.40	0.020
776.58	0.020
776.77	0.020
776.96	0.019
777.15	0.019
777.34	0.019
777.53	0.019
777.72	0.019
777.91	0.019
778.10	0.019
778.28	0.018
778.47	0.018
778.66	0.018
778.85	0.018
779.04	0.018
779.23	0.018
779.42	0.019
779.61	0.018
779.79	0.018
779.98	0.018
780.17	0.018
780.36	0.019
780.55	0.019
780.74	0.019
780.93	0.019
781.12	0.019
781.30	0.019
781.49	0.019
781.68	0.019
781.87	0.019
782.06	0.019
782.25	0.019
782.44	0.020
782.62	0.020
782.81	0.019
783.00	0.019
783.19	0.019
783.38	0.019
783.57	0.020
783.75	0.019
783.94	0.019
784.13	0.020
784.32	0.019
784.51	0.019
784.70	0.019
784.88	0.019
785.07	0.019
785.26	0.019
785.45	0.019
785.64	0.019
785.83	0.019
786.01	0.019
786.20	0.019
786.39	0.019
786.58	0.019
786.77	0.019
786.95	0.019
787.14	0.019
787.33	0.019
787.52	0.019
787.71	0.019
787.90	0.019
788.08	0.019
788.27	0.019
788.46	0.020
788.65	0.019
788.84	0.019
789.02	0.020
789.21	0.020
789.40	0.020
789.59	0.020
789.77	0.020
789.96	0.020
790.15	0.020
790.34	0.020
790.53	0.020
790.71	0.020
790.90	0.020
791.09	0.020
791.28	0.020
791.46	0.020
791.65	0.020
791.84	0.020
792.03	0.020
792.22	0.020
792.40	0.020
792.59	0.020
792.78	0.020
792.97	0.020
793.15	0.020
793.34	0.021
793.53	0.020
793.72	0.021
793.90	0.021
794.09	0.021
794.28	0.021
794.47	0.021
794.65	0.021
794.84	0.021
795.03	0.021
795.22	0.021
795.40	0.021
795.59	0.021
795.78	0.021
795.97	0.022
796.15	0.022
796.34	0.022
796.53	0.022
796.71	0.022
796.90	0.022
797.09	0.022
797.28	0.022
797.46	0.022
797.65	0.022
797.84	0.022
798.02	0.022
798.21	0.022
798.40	0.023
798.59	0.023
798.77	0.022
798.96	0.022
799.15	0.022
799.33	0.022
799.52	0.022
799.71	0.023
799.90	0.023
800.08	0.023
800.27	0.022
800.46	0.022
800.64	0.022
800.83	0.022
801.02	0.022
801.20	0.022
801.39	0.022
801.58	0.022
801.76	0.021
801.95	0.021
802.14	0.021
802.32	0.022
802.51	0.022
802.70	0.021
802.88	0.022
803.07	0.022
803.26	0.022
803.44	0.022
803.63	0.022
803.82	0.022
804.00	0.022
804.19	0.022
804.38	0.022
804.56	0.022
804.75	0.022
804.94	0.022
805.12	0.022
805.31	0.022
805.50	0.022
805.68	0.022
805.87	0.022
806.06	0.022
806.24	0.022
806.43	0.023
806.62	0.022
806.80	0.023
806.99	0.023
807.17	0.023
807.36	0.023
807.55	0.023
807.73	0.023
807.92	0.023
808.11	0.023
808.29	0.023
808.48	0.022
808.66	0.022
808.85	0.022
809.04	0.023
809.22	0.022
809.41	0.023
809.59	0.022
809.78	0.022
809.97	0.022
810.15	0.022
810.34	0.022
810.53	0.022
810.71	0.022
810.90	0.022
811.08	0.022
811.27	0.022
811.45	0.022
811.64	0.022
811.83	0.022
812.01	0.022
812.20	0.022
812.38	0.023
812.57	0.023
812.76	0.023
812.94	0.022
813.13	0.022
813.31	0.022
813.50	0.022
813.68	0.022
813.87	0.022
814.06	0.022
814.24	0.021
814.43	0.021
814.61	0.021
814.80	0.022
814.98	0.022
815.17	0.022
815.36	0.022
815.54	0.022
815.73	0.022
815.91	0.023
816.10	0.023
816.28	0.022
816.47	0.023
816.65	0.022
816.84	0.022
817.03	0.022
817.21	0.022
817.40	0.022
817.58	0.022
817.77	0.022
817.95	0.021
818.14	0.021
818.32	0.021
818.51	0.021
818.69	0.021
818.88	0.022
819.06	0.022
819.25	0.022
819.43	0.022
819.62	0.022
819.80	0.022
819.99	0.022
820.18	0.022
820.36	0.022
820.55	0.022
820.73	0.022
820.92	0.022
821.10	0.022
821.29	0.022
821.47	0.022
821.66	0.022
821.84	0.022
822.03	0.022
822.21	0.023
822.40	0.023
822.58	0.023
822.77	0.023
822.95	0.023
823.14	0.022
823.32	0.022
823.50	0.022
823.69	0.022
823.87	0.022
824.06	0.021
824.24	0.021
824.43	0.021
824.61	0.021
824.80	0.021
824.98	0.021
825.17	0.021
825.35	0.021
825.54	0.021
825.72	0.021
825.91	0.021
826.09	0.021
826.28	0.021
826.46	0.021
826.64	0.021
826.83	0.020
827.01	0.020
827.20	0.020
827.38	0.020
827.57	0.020
827.75	0.020
827.94	0.020
828.12	0.020
828.31	0.019
828.49	0.019
828.67	0.019
828.86	0.019
829.04	0.018
829.23	0.018
829.41	0.018
829.60	0.018
829.78	0.018
829.96	0.018
830.15	0.018
830.33	0.018
830.52	0.018
830.70	0.018
830.88	0.018
831.07	0.018
831.25	0.018
831.44	0.018
831.62	0.018
831.81	0.018
831.99	0.017
832.17	0.017
832.36	0.017
832.54	0.017
832.73	0.017
832.91	0.017
833.09	0.017
833.28	0.017
833.46	0.017
833.65	0.017
833.83	0.017
834.01	0.017
834.20	0.017
834.38	0.017
834.56	0.017
834.75	0.017
834.93	0.017
835.12	0.017
835.30	0.017
835.48	0.017
835.67	0.017
835.85	0.017
836.03	0.017
836.22	0.017
836.40	0.016
836.59	0.016
836.77	0.016
836.95	0.016
837.14	0.016
837.32	0.016
837.50	0.016
837.69	0.016
837.87	0.016
838.05	0.016
838.24	0.016
838.42	0.016
838.60	0.016
838.79	0.016
838.97	0.016
839.15	0.017
839.34	0.017
839.52	0.016
839.70	0.016
839.89	0.016
840.07	0.016
840.25	0.016
840.44	0.016
840.62	0.015
840.80	0.015
840.99	0.016
841.17	0.015
841.35	0.015
841.54	0.015
841.72	0.015
841.90	0.015
842.09	0.015
842.27	0.015
842.45	0.015
842.64	0.015
842.82	0.015
843.00	0.015
843.19	0.015
843.37	0.015
843.55	0.015
843.73	0.015
843.92	0.015
844.10	0.014
844.28	0.014
844.47	0.014
844.65	0.015
844.83	0.015
845.01	0.015
845.20	0.015
845.38	0.015
845.56	0.015
845.75	0.015
845.93	0.015
846.11	0.015
846.29	0.015
846.48	0.015
846.66	0.015
846.84	0.015
847.02	0.015
847.21	0.015
847.39	0.015
847.57	0.015
847.76	0.015
847.94	0.015
848.12	0.015
848.30	0.015
848.49	0.015
848.67	0.015
848.85	0.015
849.03	0.014
849.22	0.014
849.40	0.014
849.58	0.014
849.76	0.014
849.95	0.014
850.13	0.014
850.31	0.015
850.49	0.015
850.67	0.015
850.86	0.015
851.04	0.015
851.22	0.015
851.40	0.015
851.59	0.015
851.77	0.015
851.95	0.015
852.13	0.015
852.31	0.015
852.50	0.015
852.68	0.015
852.86	0.015
853.04	0.014
853.23	0.015
853.41	0.014
853.59	0.014
853.77	0.014
853.95	0.014
854.14	0.014
854.32	0.014
854.50	0.014
854.68	0.014
854.86	0.014
855.04	0.014
855.23	0.013
855.41	0.014
855.59	0.014
855.77	0.013
855.95	0.013
856.14	0.013
856.32	0.012
856.50	0.012
856.68	0.012
856.86	0.012
857.04	0.012
857.23	0.012
857.41	0.012
857.59	0.012
857.77	0.012
857.95	0.012
858.13	0.013
858.32	0.013
858.50	0.013
858.68	0.013
858.86	0.013
859.04	0.013
859.22	0.013
859.41	0.013
859.59	0.013
859.77	0.013
859.95	0.013
860.13	0.013
860.31	0.013
860.49	0.012
860.68	0.012
860.86	0.012
861.04	0.012
861.22	0.012
861.40	0.012
861.58	0.012
861.76	0.012
861.94	0.012
862.13	0.012
862.31	0.013
862.49	0.013
862.67	0.013
862.85	0.013
863.03	0.013
863.21	0.014
863.39	0.014
863.57	0.013
863.76	0.013
863.94	0.013
864.12	0.013
864.30	0.013
864.48	0.013
864.66	0.014
864.84	0.013
865.02	0.013
865.20	0.013
865.38	0.013
865.57	0.013
865.75	0.013
865.93	0.013
866.11	0.013
866.29	0.013
866.47	0.013
866.65	0.013
866.83	0.014
867.01	0.014
867.19	0.014
867.37	0.014
867.55	0.014
867.73	0.014
867.92	0.014
868.10	0.014
868.28	0.014
868.46	0.015
868.64	0.015
868.82	0.015
869.00	0.015
869.18	0.015
869.36	0.015
869.54	0.015
869.72	0.016
869.90	0.015
870.08	0.016
870.26	0.016
870.44	0.016
870.62	0.016
870.80	0.016
870.98	0.016
871.16	0.016
871.34	0.017
871.53	0.017
871.71	0.017
871.89	0.017
872.07	0.017
872.25	0.017
872.43	0.017
872.61	0.016
872.79	0.016
872.97	0.016
873.15	0.016
873.33	0.017
873.51	0.017
873.69	0.017
873.87	0.017
874.05	0.017
874.23	0.017
874.41	0.017
874.59	0.017
874.77	0.017
874.95	0.017
875.13	0.018
875.31	0.018
875.49	0.018
875.67	0.017
875.85	0.017
876.03	0.017
876.21	0.017
876.39	0.017
876.57	0.017
876.75	0.017
876.93	0.017
877.11	0.017
877.29	0.016
877.47	0.016
877.65	0.017
877.82	0.017
878.00	0.017
878.18	0.016
878.36	0.016
878.54	0.016
878.72	0.016
878.90	0.016
879.08	0.017
879.26	0.017
879.44	0.017
879.62	0.017
879.80	0.017
879.98	0.017
880.16	0.016
880.34	0.016
880.52	0.016
880.70	0.016
880.88	0.016
881.06	0.016
881.24	0.015
881.42	0.015
881.59	0.015
881.77	0.015
881.95	0.015
882.13	0.015
882.31	0.015
882.49	0.015
882.67	0.015
882.85	0.015
883.03	0.016
883.21	0.016
883.39	0.016
883.57	0.016
883.75	0.016
883.92	0.016
884.10	0.016
884.28	0.016
884.46	0.016
884.64	0.016
884.82	0.016
885.00	0.016
885.18	0.016
885.36	0.015
885.54	0.015
885.71	0.015
885.89	0.015
886.07	0.015
886.25	0.015
886.43	0.015
886.61	0.015
886.79	0.015
886.97	0.015
887.15	0.015
887.32	0.015
887.50	0.015
887.68	0.015
887.86	0.015
888.04	0.015
888.22	0.014
888.40	0.015
888.57	0.014
888.75	0.014
888.93	0.015
889.11	0.015
889.29	0.015
889.47	0.015
889.65	0.015
889.82	0.015
890.00	0.015
890.18	0.016
890.36	0.015
890.54	0.016
890.72	0.016
890.90	0.016
891.07	0.016
891.25	0.016
891.43	0.016
891.61	0.016
891.79	0.017
891.97	0.017
892.14	0.017
892.32	0.017
892.50	0.018
892.68	0.018
892.86	0.018
893.03	0.018
893.21	0.018
893.39	0.018
893.57	0.019
893.75	0.019
893.93	0.019
894.10	0.018
894.28	0.018
894.46	0.018
894.64	0.018
894.82	0.018
894.99	0.018
895.17	0.018
895.35	0.018
895.53	0.018
895.71	0.018
895.88	0.017
896.06	0.018
896.24	0.017
896.42	0.017
896.59	0.017
896.77	0.017
896.95	0.017
897.13	0.017
897.31	0.017
897.48	0.017
897.66	0.017
897.84	0.017
898.02	0.017
898.19	0.018
898.37	0.018
898.55	0.018
898.73	0.018
898.91	0.018
899.08	0.018
899.26	0.018
899.44	0.019
899.62	0.019
899.79	0.019
899.97	0.019
900.15	0.018
900.33	0.019
900.50	0.019
900.68	0.019
900.86	0.019
901.04	0.019
901.21	0.019
901.39	0.018
901.57	0.018
901.74	0.018
901.92	0.019
902.10	0.019
902.28	0.019
902.45	0.019
902.63	0.019
902.81	0.019
902.99	0.020
903.16	0.020
903.34	0.020
903.52	0.020
903.69	0.020
903.87	0.020
904.05	0.020
904.22	0.020
904.40	0.021
904.58	0.021
904.76	0.021
904.93	0.021
905.11	0.021
905.29	0.021
905.46	0.021
905.64	0.021
905.82	0.022
905.99	0.022
906.17	0.022
906.35	0.022
906.53	0.023
906.70	0.023
906.88	0.023
907.06	0.023
907.23	0.024
907.41	0.024
907.59	0.024
907.76	0.024
907.94	0.025
908.12	0.025
908.29	0.025
908.47	0.026
908.65	0.027
908.82	0.027
909.00	0.027
909.18	0.027
909.35	0.028
909.53	0.028
909.71	0.028
909.88	0.029
910.06	0.029
910.23	0.029
910.41	0.030
910.59	0.030
910.76	0.030
910.94	0.031
911.12	0.032
911.29	0.032
911.47	0.032
911.65	0.032
911.82	0.032
912.00	0.032
912.17	0.033
912.35	0.033
912.53	0.033
912.70	0.033
912.88	0.033
913.06	0.033
913.23	0.034
913.41	0.034
913.58	0.034
913.76	0.034
913.94	0.035
914.11	0.035
914.29	0.035
914.46	0.035
914.64	0.035
914.82	0.036
914.99	0.036
915.17	0.036
915.34	0.037
915.52	0.037
915.70	0.038
915.87	0.038
916.05	0.038
916.22	0.038
916.40	0.039
916.57	0.039
916.75	0.039
916.93	0.039
917.10	0.039
917.28	0.040
917.45	0.040
917.63	0.041
917.80	0.041
917.98	0.041
918.16	0.042
918.33	0.042
918.51	0.042
918.68	0.043
918.86	0.043
919.03	0.043
919.21	0.043
919.39	0.044
919.56	0.044
919.74	0.044
919.91	0.044
920.09	0.044
920.26	0.045
920.44	0.045
920.61	0.045
920.79	0.046
920.96	0.046
921.14	0.046
921.31	0.047
921.49	0.047
921.67	0.047
921.84	0.047
922.02	0.048
922.19	0.048
922.37	0.049
922.54	0.049
922.72	0.049
922.89	0.049
923.07	0.050
923.24	0.050
923.42	0.050
923.59	0.051
923.77	0.051
923.94	0.051
924.12	0.051
924.29	0.051
924.47	0.052
924.64	0.052
924.82	0.052
924.99	0.053
925.17	0.053
925.34	0.053
925.52	0.054
925.69	0.054
925.87	0.054
926.04	0.054
926.22	0.054
926.39	0.054
926.57	0.054
926.74	0.054
926.91	0.054
927.09	0.054
927.26	0.054
927.44	0.053
927.61	0.053
927.79	0.053
927.96	0.053
928.14	0.053
928.31	0.053
928.49	0.052
928.66	0.053
928.84	0.052
929.01	0.052
929.18	0.052
929.36	0.051
929.53	0.051
929.71	0.051
929.88	0.050
930.06	0.050
930.23	0.049
930.41	0.049
930.58	0.048
930.75	0.048
930.93	0.047
931.10	0.046
931.28	0.046
931.45	0.045
931.63	0.045
931.80	0.044
931.97	0.043
932.15	0.043
932.32	0.042
932.50	0.041
932.67	0.040
932.84	0.040
933.02	0.039
933.19	0.038
933.37	0.037
933.54	0.036
933.71	0.035
933.89	0.034
934.06	0.033
934.24	0.032
934.41	0.031
934.58	0.030
934.76	0.028
934.93	0.027
935.11	0.026
935.28	0.025
935.45	0.024
935.63	0.023
935.80	0.021
935.98	0.020
936.15	0.019
936.32	0.017
936.50	0.016
936.67	0.015
936.84	0.013
937.02	0.012
937.19	0.010
937.36	0.009
937.54	0.008
937.71	0.006
937.89	0.005
938.06	0.003
938.23	0.002
938.41	0.001
938.58	-0.001
938.75	-0.002
938.93	-0.003
939.10	-0.004
939.27	-0.006
939.45	-0.007
939.62	-0.008
939.79	-0.010
939.97	-0.011
940.14	-0.013
940.31	-0.014
940.49	-0.016
940.66	-0.017
940.83	-0.018
941.01	-0.020
941.18	-0.021
941.35	-0.022
941.53	-0.023
941.70	-0.025
941.87	-0.026
942.05	-0.027
942.22	-0.029
942.39	-0.030
942.57	-0.031
942.74	-0.032
942.91	-0.033
943.08	-0.035
943.26	-0.036
943.43	-0.037
943.60	-0.038
943.78	-0.040
943.95	-0.041
944.12	-0.042
944.29	-0.043
944.47	-0.045
944.64	-0.046
944.81	-0.048
944.99	-0.049
945.16	-0.050
945.33	-0.052
945.50	-0.053
945.68	-0.054
945.85	-0.055
946.02	-0.057
946.20	-0.058
946.37	-0.059
946.54	-0.060
946.71	-0.061
946.89	-0.062
947.06	-0.064
947.23	-0.065
947.40	-0.066
947.58	-0.067
947.75	-0.069
947.92	-0.070
948.09	-0.072
948.27	-0.073
948.44	-0.074
948.61	-0.076
948.78	-0.077
948.96	-0.078
949.13	-0.079
949.30	-0.081
949.47	-0.082
949.65	-0.083
949.82	-0.084
949.99	-0.086
950.16	-0.088
950.33	-0.089
950.51	-0.090
950.68	-0.092
950.85	-0.094
951.02	-0.095
951.20	-0.096
951.37	-0.098
951.54	-0.099
951.71	-0.101
951.88	-0.102
952.06	-0.103
952.23	-0.105
952.40	-0.106
952.57	-0.108
952.74	-0.109
952.92	-0.111
953.09	-0.112
953.26	-0.113
953.43	-0.114
953.60	-0.115
953.77	-0.117
953.95	-0.118
954.12	-0.120
954.29	-0.121
954.46	-0.122
954.63	-0.124
954.81	-0.125
954.98	-0.126
955.15	-0.128
955.32	-0.129
955.49	-0.131
955.66	-0.133
955.84	-0.134
956.01	-0.135
956.18	-0.137
956.35	-0.138
956.52	-0.138
956.69	-0.139
956.87	-0.140
957.04	-0.141
957.21	-0.142
957.38	-0.143
957.55	-0.144
957.72	-0.145
957.89	-0.146
958.07	-0.147
958.24	-0.148
958.41	-0.149
958.58	-0.150
958.75	-0.150
958.92	-0.151
959.09	-0.152
959.26	-0.152
959.44	-0.153
959.61	-0.154
959.78	-0.155
959.95	-0.156
960.12	-0.156
960.29	-0.157
960.46	-0.158
960.63	-0.158
960.81	-0.159
960.98	-0.160
961.15	-0.161
961.32	-0.161
961.49	-0.161
961.66	-0.162
961.83	-0.162
962.00	-0.163
962.17	-0.163
962.34	-0.163
962.52	-0.163
962.69	-0.164
962.86	-0.164
963.03	-0.164
963.20	-0.165
963.37	-0.165
963.54	-0.165
963.71	-0.166
963.88	-0.166
964.05	-0.167
964.22	-0.167
964.39	-0.167
964.56	-0.167
964.74	-0.168
964.91	-0.168
965.08	-0.168
965.25	-0.168
965.42	-0.169
965.59	-0.169
965.76	-0.169
965.93	-0.169
966.10	-0.169
966.27	-0.170
966.44	-0.169
966.61	-0.169
966.78	-0.169
966.95	-0.170
967.12	-0.170
967.29	-0.170
967.46	-0.170
967.63	-0.170
967.80	-0.170
967.97	-0.171
968.14	-0.171
968.32	-0.171
968.49	-0.171
968.66	-0.172
968.83	-0.172
969.00	-0.172
969.17	-0.171
969.34	-0.171
969.51	-0.172
969.68	-0.172
969.85	-0.172
970.02	-0.173
970.19	-0.172
970.36	-0.173
970.53	-0.173
970.70	-0.173
970.87	-0.173
971.04	-0.174
971.21	-0.174
971.38	-0.174
971.55	-0.174
971.72	-0.174
971.89	-0.174
972.06	-0.175
972.23	-0.174
972.40	-0.175
972.57	-0.175
972.74	-0.175
972.91	-0.175
973.07	-0.175
973.24	-0.175
973.41	-0.175
973.58	-0.175
973.75	-0.175
973.92	-0.175
974.09	-0.176
974.26	-0.175
974.43	-0.175
974.60	-0.175
974.77	-0.176
974.94	-0.176
975.11	-0.176
975.28	-0.176
975.45	-0.176
975.62	-0.176
975.79	-0.176
975.96	-0.176
976.13	-0.176
976.30	-0.176
976.47	-0.177
976.64	-0.177
976.80	-0.176
976.97	-0.176
977.14	-0.175
977.31	-0.176
977.48	-0.175
977.65	-0.175
977.82	-0.174
977.99	-0.175
978.16	-0.174
978.33	-0.174
978.50	-0.174
978.67	-0.174
978.83	-0.173
979.00	-0.173
979.17	-0.173
979.34	-0.174
979.51	-0.174
979.68	-0.173
979.85	-0.173
980.02	-0.173
980.19	-0.173
980.36	-0.173
980.52	-0.173
980.69	-0.173
980.86	-0.173
981.03	-0.173
981.20	-0.172
981.37	-0.172
981.54	-0.172
981.71	-0.172
981.88	-0.171
982.04	-0.170
982.21	-0.170
982.38	-0.170
982.55	-0.171
982.72	-0.170
982.89	-0.170
983.06	-0.170
983.22	-0.170
983.39	-0.170
983.56	-0.170
983.73	-0.169
983.90	-0.169
984.07	-0.169
984.24	-0.168
984.40	-0.168
984.57	-0.168
984.74	-0.167
984.91	-0.167
985.08	-0.167
985.25	-0.166
985.41	-0.166
985.58	-0.165
985.75	-0.165
985.92	-0.165
986.09	-0.165
986.26	-0.164
986.42	-0.164
986.59	-0.164
986.76	-0.164
986.93	-0.164
987.10	-0.164
987.27	-0.164
987.43	-0.164
987.60	-0.163
987.77	-0.162
987.94	-0.162
988.11	-0.162
988.27	-0.162
988.44	-0.161
988.61	-0.161
988.78	-0.160
988.95	-0.159
989.11	-0.159
989.28	-0.158
989.45	-0.158
989.62	-0.158
989.79	-0.157
989.95	-0.157
990.12	-0.156
990.29	-0.156
990.46	-0.157
990.62	-0.156
990.79	-0.156
990.96	-0.156
991.13	-0.155
991.30	-0.155
991.46	-0.154
991.63	-0.154
991.80	-0.154
991.97	-0.153
992.13	-0.152
992.30	-0.151
992.47	-0.151
992.64	-0.150
992.80	-0.150
992.97	-0.150
993.14	-0.149
993.31	-0.149
993.47	-0.149
993.64	-0.149
993.81	-0.149
993.98	-0.148
994.14	-0.148
994.31	-0.148
994.48	-0.148
994.64	-0.147
994.81	-0.147
994.98	-0.147
995.15	-0.147
995.31	-0.146
995.48	-0.145
995.65	-0.145
995.82	-0.145
995.98	-0.144
996.15	-0.144
996.32	-0.143
996.48	-0.143
996.65	-0.142
996.82	-0.141
996.99	-0.141
997.15	-0.140
997.32	-0.140
997.49	-0.140
997.65	-0.139
997.82	-0.138
997.99	-0.138
998.15	-0.138
998.32	-0.137
998.49	-0.137
998.65	-0.137
998.82	-0.136
998.99	-0.136
999.15	-0.135
999.32	-0.135
999.49	-0.135
999.65	-0.134
999.82	-0.133
999.99	-0.133
1000.15	-0.133
1000.32	-0.132
1000.49	-0.132
1000.65	-0.131
1000.82	-0.131
1000.99	-0.131
1001.15	-0.130
1001.32	-0.129
1001.49	-0.130
1001.65	-0.129
1001.82	-0.129
1001.99	-0.128
1002.15	-0.128
1002.32	-0.127
1002.49	-0.126
1002.65	-0.126
1002.82	-0.125
1002.99	-0.124
1003.15	-0.125
1003.32	-0.123
1003.48	-0.123
1003.65	-0.122
1003.82	-0.122
1003.98	-0.122
1004.15	-0.121
1004.32	-0.120
1004.48	-0.120
1004.65	-0.119
1004.81	-0.119
1004.98	-0.118
1005.15	-0.117
1005.31	-0.117
1005.48	-0.116
1005.64	-0.115
1005.81	-0.115
1005.98	-0.114
1006.14	-0.114
1006.31	-0.113
1006.47	-0.113
1006.64	-0.112
1006.81	-0.112
1006.97	-0.111
1007.14	-0.110
1007.30	-0.109
1007.47	-0.110
1007.63	-0.109
1007.80	-0.109
1007.97	-0.108
1008.13	-0.108
1008.30	-0.107
1008.46	-0.107
1008.63	-0.107
1008.79	-0.107
1008.96	-0.107
1009.13	-0.106
1009.29	-0.105
1009.46	-0.104
1009.62	-0.103
1009.79	-0.102
1009.95	-0.102
1010.12	-0.101
1010.28	-0.101
1010.45	-0.099
1010.62	-0.099
1010.78	-0.098
1010.95	-0.098
1011.11	-0.098
1011.28	-0.098
1011.44	-0.097
1011.61	-0.097
1011.77	-0.097
1011.94	-0.096
1012.10	-0.096
1012.27	-0.095
1012.43	-0.095
1012.60	-0.094
1012.76	-0.094
1012.93	-0.094
1013.10	-0.093
1013.26	-0.093
1013.43	-0.092
1013.59	-0.091
1013.76	-0.091
1013.92	-0.091
1014.09	-0.090
1014.25	-0.088
1014.42	-0.088
1014.58	-0.087
1014.75	-0.087
1014.91	-0.085
1015.08	-0.085
1015.24	-0.084
1015.41	-0.083
1015.57	-0.083
1015.73	-0.082
1015.90	-0.082
1016.06	-0.082
1016.23	-0.082
1016.39	-0.081
1016.56	-0.080
1016.72	-0.080
1016.89	-0.080
1017.05	-0.080
1017.22	-0.080
1017.38	-0.079
1017.55	-0.079
1017.71	-0.078
1017.88	-0.077
1018.04	-0.077
1018.21	-0.077
1018.37	-0.077
1018.53	-0.076
1018.70	-0.076
1018.86	-0.074
1019.03	-0.074
1019.19	-0.073
1019.36	-0.073
1019.52	-0.073
1019.69	-0.074
1019.85	-0.072
1020.01	-0.072
1020.18	-0.072
1020.34	-0.072
1020.51	-0.071
1020.67	-0.073
1020.84	-0.072
1021.00	-0.072
1021.16	-0.071
1021.33	-0.070
1021.49	-0.069
1021.66	-0.068
1021.82	-0.068
1021.98	-0.067
1022.15	-0.066
1022.31	-0.066
1022.48	-0.065
1022.64	-0.064
1022.80	-0.064
1022.97	-0.064
1023.13	-0.064
1023.30	-0.064
1023.46	-0.064
1023.62	-0.064
1023.79	-0.064
1023.95	-0.064
1024.12	-0.063
1024.28	-0.062
1024.44	-0.063
1024.61	-0.062
1024.77	-0.063
1024.93	-0.062
1025.10	-0.061
1025.26	-0.059
1025.43	-0.058
1025.59	-0.058
1025.75	-0.057
1025.92	-0.057
1026.08	-0.058
1026.24	-0.056
1026.41	-0.055
1026.57	-0.054
1026.73	-0.055
1026.90	-0.056
1027.06	-0.055
1027.23	-0.055
1027.39	-0.055
1027.55	-0.054
1027.72	-0.053
1027.88	-0.051
1028.04	-0.052
1028.21	-0.052
1028.37	-0.050
1028.53	-0.049
1028.70	-0.048
1028.86	-0.047
1029.02	-0.046
1029.19	-0.046
1029.35	-0.046
1029.51	-0.045
1029.67	-0.046
1029.84	-0.045
1030.00	-0.045
1030.16	-0.045
1030.33	-0.045
1030.49	-0.044
1030.65	-0.045
1030.82	-0.045
1030.98	-0.044
1031.14	-0.044
1031.31	-0.044
1031.47	-0.043
1031.63	-0.042
1031.79	-0.041
1031.96	-0.041
1032.12	-0.040
1032.28	-0.039
1032.45	-0.038
1032.61	-0.038
1032.77	-0.038
1032.93	-0.037
1033.10	-0.035
1033.26	-0.034
1033.42	-0.033
1033.58	-0.032
1033.75	-0.030
1033.91	-0.030
1034.07	-0.030
1034.24	-0.030
1034.40	-0.028
1034.56	-0.027
1034.72	-0.028
1034.89	-0.028
1035.05	-0.029
1035.21	-0.029
1035.37	-0.029
1035.54	-0.030
1035.70	-0.029
1035.86	-0.029
1036.02	-0.029
1036.19	-0.029
1036.35	-0.029
1036.51	-0.028
1036.67	-0.028
1036.83	-0.028
1037.00	-0.027
1037.16	-0.027
1037.32	-0.028
1037.48	-0.028
1037.65	-0.028
1037.81	-0.027
1037.97	-0.027
1038.13	-0.026
1038.29	-0.024
1038.46	-0.025
1038.62	-0.025
1038.78	-0.026
1038.94	-0.025
1039.10	-0.023
1039.27	-0.023
1039.43	-0.023
1039.59	-0.023
1039.75	-0.023
1039.91	-0.023
1040.08	-0.024
1040.24	-0.024
1040.40	-0.023
1040.56	-0.022
1040.72	-0.021
1040.89	-0.022
1041.05	-0.021
1041.21	-0.021
1041.37	-0.022
1041.53	-0.021
1041.69	-0.020
1041.86	-0.021
1042.02	-0.020
1042.18	-0.020
1042.34	-0.020
1042.50	-0.021
1042.66	-0.020
1042.83	-0.021
1042.99	-0.021
1043.15	-0.020
1043.31	-0.020
1043.47	-0.022
1043.63	-0.021
1043.79	-0.021
1043.96	-0.020
1044.12	-0.021
1044.28	-0.019
1044.44	-0.020
1044.60	-0.019
1044.76	-0.019
1044.92	-0.019
1045.09	-0.017
1045.25	-0.016
1045.41	-0.016
1045.57	-0.016
1045.73	-0.016
1045.89	-0.017
1046.05	-0.016
1046.21	-0.013
1046.38	-0.010
1046.54	-0.022
1046.70	-0.033
1046.86	-0.011
>>>>>End Processed Spectral Data<<<<<
