SpectraSuite Data File
++++++++++++++++++++++++++++++++++++
Date: Mon May 06 13:31:56 CDT 2013
User: Students
Dark Spectrum Present: Yes
Reference Spectrum Present: Yes
Number of Sampled Component Spectra: 1
Spectrometers: USB4H00887
Integration Time (usec): 50000 (USB4H00887)
Spectra Averaged: 10 (USB4H00887)
Boxcar Smoothing: 5 (USB4H00887)
Correct for Electrical Dark: No (USB4H00887)
Strobe/Lamp Enabled: No (USB4H00887)
Correct for Detector Non-linearity: No (USB4H00887)
Correct for Stray Light: No (USB4H00887)
Number of Pixels in Processed Spectrum: 3648
>>>>>Begin Processed Spectral Data<<<<<
345.83	-0.157
346.05	-0.157
346.26	-0.157
346.48	-0.263
346.70	-0.000
346.92	-0.047
347.14	0.179
347.35	0.089
347.57	0.000
347.79	-0.016
348.01	-0.233
348.23	-0.353
348.44	-0.437
348.66	-0.356
348.88	-0.211
349.10	-0.174
349.32	-0.148
349.53	-0.161
349.75	-0.137
349.97	-0.110
350.19	-0.111
350.41	-0.066
350.62	-0.055
350.84	-0.063
351.06	-0.055
351.28	-0.041
351.50	-0.032
351.71	-0.041
351.93	-0.065
352.15	-0.069
352.37	-0.109
352.58	-0.101
352.80	-0.136
353.02	-0.117
353.24	-0.115
353.46	-0.136
353.67	-0.177
353.89	-0.150
354.11	-0.119
354.33	-0.133
354.54	-0.152
354.76	-0.096
354.98	-0.075
355.20	-0.052
355.41	-0.042
355.63	-0.021
355.85	0.013
356.07	-0.010
356.28	-0.009
356.50	-0.006
356.72	0.018
356.94	0.015
357.15	0.017
357.37	-0.006
357.59	-0.002
357.81	-0.039
358.02	-0.057
358.24	-0.054
358.46	-0.045
358.68	-0.041
358.89	-0.046
359.11	-0.065
359.33	-0.049
359.55	-0.059
359.76	-0.036
359.98	-0.033
360.20	-0.018
360.42	-0.024
360.63	-0.036
360.85	-0.024
361.07	-0.026
361.29	-0.024
361.50	-0.005
361.72	-0.008
361.94	-0.023
362.15	-0.031
362.37	-0.005
362.59	-0.003
362.81	0.001
363.02	0.002
363.24	-0.018
363.46	0.013
363.68	0.006
363.89	-0.001
364.11	-0.001
364.33	0.006
364.54	0.019
364.76	-0.014
364.98	-0.028
365.20	-0.035
365.41	-0.005
365.63	0.012
365.85	-0.030
366.06	-0.026
366.28	-0.025
366.50	0.016
366.71	0.039
366.93	0.020
367.15	0.050
367.37	0.079
367.58	0.081
367.80	0.060
368.02	0.065
368.23	0.090
368.45	0.066
368.67	0.081
368.88	0.059
369.10	0.058
369.32	0.066
369.53	0.062
369.75	0.045
369.97	0.057
370.19	0.049
370.40	0.058
370.62	0.030
370.84	0.044
371.05	0.034
371.27	0.042
371.49	0.048
371.70	0.063
371.92	0.082
372.14	0.078
372.35	0.068
372.57	0.095
372.79	0.057
373.00	0.072
373.22	0.065
373.44	0.065
373.65	0.066
373.87	0.048
374.09	0.034
374.30	0.002
374.52	0.019
374.74	0.069
374.95	0.048
375.17	0.082
375.39	0.108
375.60	0.122
375.82	0.147
376.04	0.150
376.25	0.125
376.47	0.136
376.68	0.134
376.90	0.134
377.12	0.121
377.33	0.133
377.55	0.120
377.77	0.102
377.98	0.124
378.20	0.113
378.42	0.132
378.63	0.170
378.85	0.159
379.07	0.176
379.28	0.168
379.50	0.156
379.71	0.173
379.93	0.198
380.15	0.195
380.36	0.185
380.58	0.203
380.80	0.191
381.01	0.201
381.23	0.235
381.44	0.215
381.66	0.240
381.88	0.231
382.09	0.246
382.31	0.208
382.53	0.203
382.74	0.227
382.96	0.203
383.17	0.179
383.39	0.162
383.61	0.158
383.82	0.168
384.04	0.174
384.25	0.204
384.47	0.206
384.69	0.224
384.90	0.234
385.12	0.212
385.33	0.239
385.55	0.283
385.77	0.272
385.98	0.238
386.20	0.248
386.41	0.247
386.63	0.223
386.85	0.222
387.06	0.231
387.28	0.250
387.49	0.281
387.71	0.277
387.93	0.252
388.14	0.288
388.36	0.322
388.57	0.352
388.79	0.335
389.01	0.377
389.22	0.389
389.44	0.416
389.65	0.411
389.87	0.397
390.08	0.393
390.30	0.408
390.52	0.425
390.73	0.406
390.95	0.394
391.16	0.389
391.38	0.376
391.59	0.358
391.81	0.345
392.03	0.327
392.24	0.348
392.46	0.360
392.67	0.384
392.89	0.338
393.10	0.332
393.32	0.315
393.53	0.337
393.75	0.318
393.97	0.317
394.18	0.333
394.40	0.356
394.61	0.355
394.83	0.347
395.04	0.342
395.26	0.389
395.47	0.414
395.69	0.429
395.91	0.434
396.12	0.465
396.34	0.499
396.55	0.514
396.77	0.478
396.98	0.423
397.20	0.443
397.41	0.432
397.63	0.425
397.84	0.402
398.06	0.394
398.27	0.402
398.49	0.399
398.71	0.400
398.92	0.387
399.14	0.422
399.35	0.460
399.57	0.442
399.78	0.477
400.00	0.467
400.21	0.468
400.43	0.473
400.64	0.444
400.86	0.433
401.07	0.403
401.29	0.382
401.50	0.361
401.72	0.375
401.93	0.378
402.15	0.362
402.36	0.360
402.58	0.374
402.79	0.387
403.01	0.396
403.22	0.416
403.44	0.442
403.65	0.463
403.87	0.473
404.08	0.449
404.30	0.475
404.51	0.495
404.73	0.519
404.94	0.533
405.16	0.542
405.37	0.539
405.59	0.536
405.80	0.557
406.02	0.550
406.23	0.549
406.45	0.610
406.66	0.597
406.88	0.596
407.09	0.568
407.31	0.579
407.52	0.570
407.74	0.598
407.95	0.603
408.17	0.567
408.38	0.602
408.60	0.633
408.81	0.581
409.03	0.571
409.24	0.565
409.45	0.579
409.67	0.563
409.88	0.573
410.10	0.580
410.31	0.592
410.53	0.608
410.74	0.596
410.96	0.585
411.17	0.602
411.39	0.590
411.60	0.604
411.82	0.605
412.03	0.628
412.24	0.641
412.46	0.619
412.67	0.612
412.89	0.636
413.10	0.651
413.32	0.664
413.53	0.660
413.75	0.697
413.96	0.661
414.17	0.659
414.39	0.637
414.60	0.637
414.82	0.671
415.03	0.672
415.25	0.667
415.46	0.663
415.68	0.658
415.89	0.674
416.10	0.702
416.32	0.711
416.53	0.708
416.75	0.702
416.96	0.691
417.18	0.690
417.39	0.705
417.60	0.704
417.82	0.709
418.03	0.700
418.25	0.678
418.46	0.639
418.67	0.652
418.89	0.659
419.10	0.675
419.32	0.689
419.53	0.691
419.75	0.675
419.96	0.659
420.17	0.638
420.39	0.646
420.60	0.657
420.82	0.674
421.03	0.689
421.24	0.683
421.46	0.690
421.67	0.702
421.89	0.707
422.10	0.707
422.31	0.719
422.53	0.733
422.74	0.736
422.96	0.750
423.17	0.736
423.38	0.738
423.60	0.751
423.81	0.739
424.03	0.733
424.24	0.704
424.45	0.728
424.67	0.719
424.88	0.726
425.09	0.725
425.31	0.715
425.52	0.729
425.74	0.723
425.95	0.722
426.16	0.715
426.38	0.715
426.59	0.748
426.80	0.741
427.02	0.762
427.23	0.784
427.45	0.810
427.66	0.827
427.87	0.793
428.09	0.789
428.30	0.794
428.51	0.812
428.73	0.822
428.94	0.792
429.15	0.794
429.37	0.789
429.58	0.797
429.79	0.798
430.01	0.809
430.22	0.866
430.44	0.880
430.65	0.868
430.86	0.901
431.08	0.871
431.29	0.903
431.50	0.920
431.72	0.932
431.93	0.911
432.14	0.886
432.36	0.864
432.57	0.851
432.78	0.843
433.00	0.850
433.21	0.824
433.42	0.831
433.64	0.840
433.85	0.830
434.06	0.831
434.28	0.835
434.49	0.856
434.70	0.845
434.92	0.847
435.13	0.877
435.34	0.900
435.56	0.897
435.77	0.912
435.98	0.908
436.20	0.924
436.41	0.918
436.62	0.898
436.83	0.899
437.05	0.929
437.26	0.931
437.47	0.915
437.69	0.904
437.90	0.926
438.11	0.920
438.33	0.926
438.54	0.922
438.75	0.912
438.97	0.928
439.18	0.920
439.39	0.914
439.60	0.920
439.82	0.920
440.03	0.906
440.24	0.892
440.46	0.900
440.67	0.876
440.88	0.878
441.10	0.910
441.31	0.923
441.52	0.926
441.73	0.923
441.95	0.913
442.16	0.905
442.37	0.911
442.58	0.929
442.80	0.931
443.01	0.938
443.22	0.927
443.44	0.913
443.65	0.900
443.86	0.902
444.07	0.924
444.29	0.931
444.50	0.934
444.71	0.936
444.92	0.929
445.14	0.927
445.35	0.946
445.56	0.971
445.78	0.960
445.99	0.962
446.20	0.957
446.41	0.941
446.63	0.939
446.84	0.944
447.05	0.964
447.26	0.951
447.48	0.953
447.69	0.944
447.90	0.929
448.11	0.946
448.33	0.947
448.54	0.955
448.75	0.951
448.96	0.952
449.18	0.961
449.39	0.942
449.60	0.948
449.81	0.940
450.03	0.932
450.24	0.933
450.45	0.926
450.66	0.916
450.87	0.922
451.09	0.915
451.30	0.924
451.51	0.910
451.72	0.903
451.94	0.911
452.15	0.917
452.36	0.934
452.57	0.930
452.78	0.926
453.00	0.919
453.21	0.917
453.42	0.920
453.63	0.910
453.85	0.910
454.06	0.925
454.27	0.935
454.48	0.940
454.69	0.933
454.91	0.947
455.12	0.958
455.33	0.971
455.54	0.974
455.75	0.984
455.97	0.969
456.18	0.975
456.39	0.965
456.60	0.957
456.81	0.944
457.03	0.943
457.24	0.926
457.45	0.922
457.66	0.919
457.87	0.907
458.09	0.911
458.30	0.917
458.51	0.926
458.72	0.938
458.93	0.931
459.15	0.936
459.36	0.923
459.57	0.936
459.78	0.930
459.99	0.938
460.20	0.945
460.42	0.943
460.63	0.968
460.84	0.970
461.05	0.955
461.26	0.947
461.47	0.955
461.69	0.966
461.90	0.961
462.11	0.969
462.32	0.966
462.53	0.963
462.74	0.958
462.96	0.946
463.17	0.929
463.38	0.941
463.59	0.945
463.80	0.939
464.01	0.941
464.23	0.939
464.44	0.936
464.65	0.936
464.86	0.942
465.07	0.950
465.28	0.950
465.49	0.959
465.71	0.958
465.92	0.960
466.13	0.956
466.34	0.959
466.55	0.963
466.76	0.962
466.97	0.965
467.19	0.962
467.40	0.949
467.61	0.957
467.82	0.957
468.03	0.953
468.24	0.947
468.45	0.939
468.66	0.939
468.88	0.934
469.09	0.928
469.30	0.921
469.51	0.923
469.72	0.926
469.93	0.922
470.14	0.917
470.35	0.916
470.57	0.921
470.78	0.936
470.99	0.938
471.20	0.936
471.41	0.943
471.62	0.946
471.83	0.939
472.04	0.943
472.25	0.941
472.47	0.938
472.68	0.940
472.89	0.937
473.10	0.930
473.31	0.925
473.52	0.931
473.73	0.928
473.94	0.927
474.15	0.930
474.36	0.930
474.57	0.932
474.79	0.930
475.00	0.932
475.21	0.929
475.42	0.926
475.63	0.923
475.84	0.919
476.05	0.918
476.26	0.921
476.47	0.919
476.68	0.915
476.89	0.909
477.10	0.914
477.32	0.909
477.53	0.912
477.74	0.917
477.95	0.923
478.16	0.923
478.37	0.921
478.58	0.916
478.79	0.915
479.00	0.914
479.21	0.910
479.42	0.910
479.63	0.908
479.84	0.908
480.05	0.900
480.26	0.893
480.47	0.893
480.69	0.896
480.90	0.896
481.11	0.895
481.32	0.897
481.53	0.897
481.74	0.894
481.95	0.894
482.16	0.890
482.37	0.890
482.58	0.892
482.79	0.888
483.00	0.886
483.21	0.885
483.42	0.884
483.63	0.880
483.84	0.879
484.05	0.879
484.26	0.878
484.47	0.883
484.68	0.882
484.89	0.881
485.10	0.882
485.31	0.877
485.52	0.875
485.73	0.875
485.94	0.873
486.15	0.872
486.37	0.871
486.58	0.871
486.79	0.866
487.00	0.866
487.21	0.866
487.42	0.862
487.63	0.863
487.84	0.864
488.05	0.864
488.26	0.864
488.47	0.865
488.68	0.864
488.89	0.864
489.10	0.866
489.31	0.860
489.52	0.857
489.73	0.859
489.94	0.858
490.15	0.859
490.36	0.854
490.57	0.855
490.78	0.856
490.99	0.851
491.20	0.852
491.41	0.851
491.62	0.856
491.83	0.857
492.04	0.856
492.25	0.852
492.45	0.849
492.66	0.850
492.87	0.848
493.08	0.848
493.29	0.848
493.50	0.844
493.71	0.841
493.92	0.840
494.13	0.842
494.34	0.842
494.55	0.844
494.76	0.842
494.97	0.842
495.18	0.843
495.39	0.842
495.60	0.843
495.81	0.842
496.02	0.842
496.23	0.843
496.44	0.840
496.65	0.840
496.86	0.840
497.07	0.841
497.28	0.841
497.49	0.839
497.70	0.837
497.91	0.838
498.12	0.840
498.32	0.839
498.53	0.839
498.74	0.837
498.95	0.833
499.16	0.834
499.37	0.831
499.58	0.833
499.79	0.835
500.00	0.837
500.21	0.837
500.42	0.838
500.63	0.837
500.84	0.836
501.05	0.837
501.26	0.839
501.46	0.838
501.67	0.842
501.88	0.841
502.09	0.839
502.30	0.838
502.51	0.839
502.72	0.838
502.93	0.840
503.14	0.840
503.35	0.840
503.56	0.839
503.77	0.840
503.97	0.839
504.18	0.838
504.39	0.839
504.60	0.839
504.81	0.838
505.02	0.838
505.23	0.838
505.44	0.838
505.65	0.841
505.86	0.842
506.07	0.840
506.27	0.838
506.48	0.842
506.69	0.844
506.90	0.846
507.11	0.848
507.32	0.848
507.53	0.849
507.74	0.850
507.95	0.846
508.15	0.848
508.36	0.851
508.57	0.854
508.78	0.850
508.99	0.848
509.20	0.845
509.41	0.843
509.62	0.842
509.82	0.845
510.03	0.844
510.24	0.845
510.45	0.845
510.66	0.846
510.87	0.847
511.08	0.850
511.29	0.852
511.49	0.852
511.70	0.854
511.91	0.855
512.12	0.853
512.33	0.854
512.54	0.854
512.75	0.854
512.95	0.855
513.16	0.853
513.37	0.852
513.58	0.852
513.79	0.854
514.00	0.854
514.20	0.856
514.41	0.855
514.62	0.856
514.83	0.855
515.04	0.854
515.25	0.851
515.46	0.853
515.66	0.851
515.87	0.854
516.08	0.854
516.29	0.855
516.50	0.854
516.71	0.854
516.91	0.855
517.12	0.856
517.33	0.856
517.54	0.858
517.75	0.858
517.95	0.858
518.16	0.856
518.37	0.856
518.58	0.854
518.79	0.854
519.00	0.854
519.20	0.852
519.41	0.852
519.62	0.852
519.83	0.851
520.04	0.850
520.24	0.848
520.45	0.844
520.66	0.843
520.87	0.841
521.08	0.840
521.28	0.838
521.49	0.838
521.70	0.837
521.91	0.835
522.12	0.834
522.32	0.834
522.53	0.833
522.74	0.834
522.95	0.833
523.16	0.833
523.36	0.832
523.57	0.830
523.78	0.829
523.99	0.825
524.20	0.825
524.40	0.824
524.61	0.822
524.82	0.820
525.03	0.818
525.23	0.816
525.44	0.815
525.65	0.815
525.86	0.815
526.06	0.811
526.27	0.811
526.48	0.808
526.69	0.805
526.90	0.804
527.10	0.803
527.31	0.802
527.52	0.800
527.73	0.798
527.93	0.796
528.14	0.794
528.35	0.793
528.56	0.792
528.76	0.791
528.97	0.788
529.18	0.788
529.39	0.784
529.59	0.782
529.80	0.779
530.01	0.776
530.22	0.772
530.42	0.770
530.63	0.767
530.84	0.765
531.05	0.764
531.25	0.763
531.46	0.760
531.67	0.759
531.88	0.756
532.08	0.755
532.29	0.754
532.50	0.754
532.70	0.751
532.91	0.750
533.12	0.748
533.33	0.744
533.53	0.742
533.74	0.740
533.95	0.738
534.15	0.736
534.36	0.735
534.57	0.733
534.78	0.730
534.98	0.728
535.19	0.726
535.40	0.726
535.60	0.725
535.81	0.721
536.02	0.718
536.23	0.715
536.43	0.713
536.64	0.711
536.85	0.708
537.05	0.705
537.26	0.703
537.47	0.699
537.67	0.695
537.88	0.692
538.09	0.691
538.30	0.690
538.50	0.686
538.71	0.683
538.92	0.680
539.12	0.678
539.33	0.675
539.54	0.674
539.74	0.672
539.95	0.670
540.16	0.669
540.36	0.666
540.57	0.664
540.78	0.661
540.98	0.659
541.19	0.656
541.40	0.654
541.60	0.652
541.81	0.649
542.02	0.646
542.22	0.644
542.43	0.640
542.64	0.639
542.84	0.635
543.05	0.633
543.26	0.631
543.46	0.628
543.67	0.625
543.88	0.623
544.08	0.621
544.29	0.619
544.50	0.616
544.70	0.614
544.91	0.610
545.12	0.607
545.32	0.604
545.53	0.603
545.74	0.600
545.94	0.596
546.15	0.593
546.35	0.590
546.56	0.588
546.77	0.585
546.97	0.582
547.18	0.580
547.39	0.578
547.59	0.575
547.80	0.572
548.01	0.569
548.21	0.567
548.42	0.565
548.62	0.562
548.83	0.560
549.04	0.558
549.24	0.556
549.45	0.553
549.65	0.551
549.86	0.549
550.07	0.548
550.27	0.545
550.48	0.542
550.69	0.539
550.89	0.536
551.10	0.534
551.30	0.530
551.51	0.527
551.72	0.526
551.92	0.523
552.13	0.520
552.33	0.517
552.54	0.514
552.75	0.511
552.95	0.509
553.16	0.506
553.36	0.503
553.57	0.499
553.78	0.496
553.98	0.492
554.19	0.489
554.39	0.486
554.60	0.483
554.80	0.480
555.01	0.478
555.22	0.473
555.42	0.470
555.63	0.468
555.83	0.465
556.04	0.463
556.25	0.460
556.45	0.458
556.66	0.455
556.86	0.452
557.07	0.449
557.27	0.446
557.48	0.444
557.68	0.441
557.89	0.438
558.10	0.434
558.30	0.431
558.51	0.428
558.71	0.424
558.92	0.422
559.12	0.419
559.33	0.416
559.54	0.413
559.74	0.410
559.95	0.407
560.15	0.404
560.36	0.401
560.56	0.399
560.77	0.395
560.97	0.393
561.18	0.389
561.38	0.386
561.59	0.384
561.79	0.381
562.00	0.378
562.21	0.375
562.41	0.372
562.62	0.370
562.82	0.367
563.03	0.364
563.23	0.361
563.44	0.358
563.64	0.355
563.85	0.352
564.05	0.349
564.26	0.346
564.46	0.342
564.67	0.340
564.87	0.337
565.08	0.334
565.28	0.331
565.49	0.328
565.69	0.324
565.90	0.321
566.10	0.318
566.31	0.315
566.51	0.312
566.72	0.310
566.92	0.306
567.13	0.303
567.33	0.300
567.54	0.297
567.74	0.295
567.95	0.293
568.15	0.290
568.36	0.288
568.56	0.285
568.77	0.282
568.97	0.279
569.18	0.277
569.38	0.275
569.59	0.272
569.79	0.269
570.00	0.266
570.20	0.264
570.41	0.261
570.61	0.258
570.82	0.256
571.02	0.252
571.23	0.250
571.43	0.247
571.64	0.245
571.84	0.243
572.05	0.240
572.25	0.238
572.45	0.236
572.66	0.233
572.86	0.231
573.07	0.228
573.27	0.227
573.48	0.224
573.68	0.222
573.89	0.219
574.09	0.217
574.30	0.215
574.50	0.213
574.70	0.210
574.91	0.207
575.11	0.205
575.32	0.202
575.52	0.200
575.73	0.198
575.93	0.196
576.14	0.194
576.34	0.191
576.54	0.189
576.75	0.187
576.95	0.185
577.16	0.183
577.36	0.181
577.57	0.179
577.77	0.177
577.97	0.175
578.18	0.173
578.38	0.171
578.59	0.169
578.79	0.167
579.00	0.165
579.20	0.163
579.40	0.161
579.61	0.159
579.81	0.158
580.02	0.156
580.22	0.154
580.42	0.153
580.63	0.151
580.83	0.149
581.04	0.147
581.24	0.145
581.45	0.143
581.65	0.142
581.85	0.140
582.06	0.137
582.26	0.136
582.47	0.134
582.67	0.132
582.87	0.131
583.08	0.129
583.28	0.128
583.48	0.126
583.69	0.125
583.89	0.123
584.10	0.122
584.30	0.121
584.50	0.119
584.71	0.118
584.91	0.116
585.12	0.115
585.32	0.113
585.52	0.112
585.73	0.110
585.93	0.109
586.13	0.107
586.34	0.105
586.54	0.104
586.75	0.102
586.95	0.101
587.15	0.100
587.36	0.099
587.56	0.097
587.76	0.096
587.97	0.095
588.17	0.094
588.37	0.093
588.58	0.092
588.78	0.091
588.98	0.090
589.19	0.088
589.39	0.087
589.60	0.086
589.80	0.085
590.00	0.083
590.21	0.082
590.41	0.080
590.61	0.079
590.82	0.078
591.02	0.076
591.22	0.075
591.43	0.074
591.63	0.073
591.83	0.072
592.04	0.072
592.24	0.070
592.44	0.070
592.65	0.069
592.85	0.068
593.05	0.067
593.26	0.067
593.46	0.066
593.66	0.064
593.86	0.064
594.07	0.062
594.27	0.062
594.47	0.061
594.68	0.060
594.88	0.059
595.08	0.058
595.29	0.057
595.49	0.056
595.69	0.055
595.90	0.055
596.10	0.054
596.30	0.054
596.50	0.053
596.71	0.052
596.91	0.052
597.11	0.052
597.32	0.051
597.52	0.050
597.72	0.049
597.93	0.049
598.13	0.048
598.33	0.048
598.53	0.047
598.74	0.046
598.94	0.046
599.14	0.045
599.35	0.044
599.55	0.044
599.75	0.043
599.95	0.042
600.16	0.041
600.36	0.040
600.56	0.040
600.76	0.039
600.97	0.040
601.17	0.039
601.37	0.038
601.58	0.037
601.78	0.037
601.98	0.037
602.18	0.036
602.39	0.035
602.59	0.035
602.79	0.034
602.99	0.034
603.20	0.033
603.40	0.032
603.60	0.032
603.80	0.032
604.01	0.031
604.21	0.031
604.41	0.031
604.61	0.031
604.82	0.031
605.02	0.030
605.22	0.030
605.42	0.030
605.62	0.030
605.83	0.029
606.03	0.029
606.23	0.029
606.43	0.029
606.64	0.028
606.84	0.028
607.04	0.028
607.24	0.028
607.45	0.028
607.65	0.028
607.85	0.027
608.05	0.027
608.25	0.027
608.46	0.026
608.66	0.026
608.86	0.026
609.06	0.026
609.26	0.026
609.47	0.025
609.67	0.025
609.87	0.025
610.07	0.024
610.28	0.024
610.48	0.024
610.68	0.024
610.88	0.024
611.08	0.023
611.29	0.023
611.49	0.023
611.69	0.023
611.89	0.022
612.09	0.022
612.29	0.022
612.50	0.022
612.70	0.022
612.90	0.022
613.10	0.021
613.30	0.021
613.51	0.021
613.71	0.021
613.91	0.021
614.11	0.021
614.31	0.021
614.51	0.021
614.72	0.021
614.92	0.021
615.12	0.020
615.32	0.020
615.52	0.020
615.72	0.020
615.93	0.020
616.13	0.019
616.33	0.019
616.53	0.019
616.73	0.019
616.93	0.019
617.14	0.018
617.34	0.018
617.54	0.019
617.74	0.018
617.94	0.018
618.14	0.019
618.34	0.019
618.55	0.019
618.75	0.019
618.95	0.019
619.15	0.019
619.35	0.019
619.55	0.019
619.75	0.019
619.96	0.019
620.16	0.018
620.36	0.018
620.56	0.017
620.76	0.017
620.96	0.018
621.16	0.017
621.36	0.017
621.57	0.017
621.77	0.017
621.97	0.017
622.17	0.017
622.37	0.017
622.57	0.017
622.77	0.018
622.97	0.018
623.18	0.018
623.38	0.018
623.58	0.018
623.78	0.017
623.98	0.017
624.18	0.018
624.38	0.017
624.58	0.017
624.78	0.017
624.98	0.017
625.19	0.017
625.39	0.017
625.59	0.017
625.79	0.017
625.99	0.017
626.19	0.017
626.39	0.017
626.59	0.017
626.79	0.017
626.99	0.017
627.19	0.017
627.40	0.017
627.60	0.017
627.80	0.017
628.00	0.017
628.20	0.017
628.40	0.016
628.60	0.016
628.80	0.016
629.00	0.016
629.20	0.016
629.40	0.016
629.60	0.016
629.80	0.016
630.00	0.016
630.20	0.016
630.41	0.016
630.61	0.016
630.81	0.016
631.01	0.016
631.21	0.016
631.41	0.016
631.61	0.016
631.81	0.016
632.01	0.016
632.21	0.016
632.41	0.016
632.61	0.016
632.81	0.015
633.01	0.015
633.21	0.015
633.41	0.015
633.61	0.015
633.81	0.015
634.01	0.015
634.21	0.015
634.41	0.015
634.61	0.015
634.81	0.015
635.01	0.015
635.22	0.015
635.42	0.015
635.62	0.015
635.82	0.015
636.02	0.015
636.22	0.015
636.42	0.015
636.62	0.015
636.82	0.015
637.02	0.015
637.22	0.015
637.42	0.016
637.62	0.016
637.82	0.015
638.02	0.015
638.22	0.015
638.42	0.015
638.62	0.015
638.82	0.015
639.02	0.015
639.22	0.015
639.42	0.015
639.62	0.015
639.82	0.015
640.02	0.015
640.22	0.015
640.42	0.015
640.62	0.015
640.82	0.015
641.02	0.015
641.22	0.015
641.42	0.015
641.61	0.015
641.81	0.015
642.01	0.015
642.21	0.015
642.41	0.015
642.61	0.015
642.81	0.015
643.01	0.015
643.21	0.015
643.41	0.015
643.61	0.015
643.81	0.015
644.01	0.015
644.21	0.015
644.41	0.015
644.61	0.014
644.81	0.014
645.01	0.014
645.21	0.014
645.41	0.014
645.61	0.014
645.81	0.014
646.01	0.014
646.21	0.014
646.40	0.014
646.60	0.014
646.80	0.014
647.00	0.015
647.20	0.015
647.40	0.014
647.60	0.015
647.80	0.015
648.00	0.015
648.20	0.015
648.40	0.015
648.60	0.015
648.80	0.015
649.00	0.015
649.20	0.014
649.39	0.014
649.59	0.015
649.79	0.015
649.99	0.015
650.19	0.015
650.39	0.015
650.59	0.015
650.79	0.015
650.99	0.015
651.19	0.015
651.39	0.015
651.58	0.015
651.78	0.015
651.98	0.015
652.18	0.015
652.38	0.015
652.58	0.015
652.78	0.015
652.98	0.015
653.18	0.015
653.38	0.014
653.57	0.015
653.77	0.015
653.97	0.015
654.17	0.014
654.37	0.015
654.57	0.015
654.77	0.015
654.97	0.015
655.16	0.014
655.36	0.014
655.56	0.014
655.76	0.014
655.96	0.014
656.16	0.014
656.36	0.014
656.56	0.014
656.75	0.013
656.95	0.013
657.15	0.013
657.35	0.013
657.55	0.014
657.75	0.014
657.95	0.014
658.14	0.014
658.34	0.014
658.54	0.014
658.74	0.014
658.94	0.014
659.14	0.014
659.34	0.014
659.53	0.014
659.73	0.014
659.93	0.014
660.13	0.014
660.33	0.014
660.53	0.014
660.72	0.014
660.92	0.013
661.12	0.014
661.32	0.014
661.52	0.014
661.72	0.014
661.91	0.013
662.11	0.013
662.31	0.013
662.51	0.013
662.71	0.013
662.90	0.013
663.10	0.013
663.30	0.013
663.50	0.013
663.70	0.013
663.90	0.013
664.09	0.013
664.29	0.013
664.49	0.013
664.69	0.013
664.89	0.014
665.08	0.013
665.28	0.013
665.48	0.014
665.68	0.014
665.88	0.014
666.07	0.014
666.27	0.014
666.47	0.013
666.67	0.013
666.87	0.013
667.06	0.013
667.26	0.013
667.46	0.013
667.66	0.013
667.85	0.013
668.05	0.013
668.25	0.014
668.45	0.014
668.65	0.014
668.84	0.014
669.04	0.014
669.24	0.014
669.44	0.014
669.63	0.013
669.83	0.013
670.03	0.013
670.23	0.013
670.42	0.013
670.62	0.012
670.82	0.012
671.02	0.013
671.22	0.012
671.41	0.012
671.61	0.013
671.81	0.013
672.01	0.013
672.20	0.013
672.40	0.013
672.60	0.013
672.80	0.013
672.99	0.013
673.19	0.013
673.39	0.013
673.58	0.013
673.78	0.014
673.98	0.013
674.18	0.013
674.37	0.013
674.57	0.013
674.77	0.013
674.97	0.012
675.16	0.012
675.36	0.012
675.56	0.012
675.75	0.012
675.95	0.012
676.15	0.012
676.35	0.012
676.54	0.012
676.74	0.012
676.94	0.013
677.13	0.013
677.33	0.013
677.53	0.013
677.73	0.013
677.92	0.013
678.12	0.013
678.32	0.013
678.51	0.013
678.71	0.013
678.91	0.013
679.11	0.013
679.30	0.013
679.50	0.013
679.70	0.013
679.89	0.013
680.09	0.013
680.29	0.013
680.48	0.013
680.68	0.013
680.88	0.013
681.07	0.013
681.27	0.013
681.47	0.013
681.66	0.013
681.86	0.013
682.06	0.013
682.25	0.013
682.45	0.013
682.65	0.013
682.84	0.013
683.04	0.013
683.24	0.013
683.43	0.013
683.63	0.013
683.83	0.013
684.02	0.013
684.22	0.013
684.42	0.013
684.61	0.013
684.81	0.013
685.01	0.013
685.20	0.013
685.40	0.013
685.60	0.013
685.79	0.013
685.99	0.013
686.19	0.013
686.38	0.013
686.58	0.013
686.77	0.013
686.97	0.013
687.17	0.013
687.36	0.013
687.56	0.013
687.76	0.013
687.95	0.013
688.15	0.013
688.34	0.012
688.54	0.013
688.74	0.013
688.93	0.013
689.13	0.012
689.33	0.013
689.52	0.013
689.72	0.012
689.91	0.012
690.11	0.012
690.31	0.012
690.50	0.013
690.70	0.012
690.89	0.013
691.09	0.013
691.29	0.013
691.48	0.013
691.68	0.013
691.87	0.013
692.07	0.013
692.27	0.013
692.46	0.013
692.66	0.013
692.85	0.013
693.05	0.013
693.25	0.013
693.44	0.013
693.64	0.013
693.83	0.013
694.03	0.013
694.22	0.013
694.42	0.013
694.62	0.013
694.81	0.013
695.01	0.013
695.20	0.013
695.40	0.013
695.59	0.013
695.79	0.013
695.99	0.013
696.18	0.013
696.38	0.013
696.57	0.013
696.77	0.013
696.96	0.013
697.16	0.013
697.36	0.013
697.55	0.013
697.75	0.013
697.94	0.013
698.14	0.012
698.33	0.013
698.53	0.013
698.72	0.013
698.92	0.013
699.11	0.012
699.31	0.013
699.51	0.013
699.70	0.013
699.90	0.013
700.09	0.013
700.29	0.013
700.48	0.013
700.68	0.013
700.87	0.012
701.07	0.012
701.26	0.012
701.46	0.012
701.65	0.012
701.85	0.012
702.04	0.012
702.24	0.012
702.43	0.012
702.63	0.011
702.82	0.011
703.02	0.011
703.21	0.011
703.41	0.011
703.60	0.011
703.80	0.011
703.99	0.012
704.19	0.012
704.38	0.012
704.58	0.012
704.77	0.012
704.97	0.012
705.16	0.012
705.36	0.012
705.55	0.012
705.75	0.012
705.94	0.012
706.14	0.012
706.33	0.012
706.53	0.012
706.72	0.012
706.92	0.012
707.11	0.012
707.31	0.012
707.50	0.012
707.70	0.012
707.89	0.012
708.09	0.013
708.28	0.013
708.48	0.012
708.67	0.012
708.86	0.012
709.06	0.012
709.25	0.012
709.45	0.012
709.64	0.011
709.84	0.011
710.03	0.011
710.23	0.011
710.42	0.011
710.62	0.011
710.81	0.011
711.00	0.011
711.20	0.011
711.39	0.011
711.59	0.011
711.78	0.011
711.98	0.011
712.17	0.011
712.37	0.011
712.56	0.011
712.75	0.011
712.95	0.011
713.14	0.011
713.34	0.011
713.53	0.011
713.73	0.011
713.92	0.011
714.11	0.011
714.31	0.011
714.50	0.011
714.70	0.011
714.89	0.011
715.08	0.011
715.28	0.011
715.47	0.011
715.67	0.011
715.86	0.011
716.06	0.011
716.25	0.011
716.44	0.011
716.64	0.011
716.83	0.011
717.03	0.011
717.22	0.011
717.41	0.010
717.61	0.010
717.80	0.010
717.99	0.010
718.19	0.010
718.38	0.010
718.58	0.010
718.77	0.010
718.96	0.010
719.16	0.010
719.35	0.009
719.55	0.009
719.74	0.009
719.93	0.010
720.13	0.010
720.32	0.009
720.51	0.010
720.71	0.010
720.90	0.009
721.10	0.009
721.29	0.009
721.48	0.009
721.68	0.009
721.87	0.009
722.06	0.009
722.26	0.008
722.45	0.008
722.64	0.008
722.84	0.007
723.03	0.007
723.22	0.008
723.42	0.008
723.61	0.008
723.80	0.008
724.00	0.008
724.19	0.007
724.38	0.008
724.58	0.008
724.77	0.008
724.96	0.008
725.16	0.008
725.35	0.008
725.54	0.008
725.74	0.008
725.93	0.008
726.12	0.008
726.32	0.008
726.51	0.008
726.70	0.007
726.90	0.007
727.09	0.007
727.28	0.007
727.48	0.007
727.67	0.007
727.86	0.007
728.06	0.007
728.25	0.007
728.44	0.007
728.64	0.007
728.83	0.007
729.02	0.007
729.21	0.007
729.41	0.007
729.60	0.007
729.79	0.006
729.99	0.007
730.18	0.006
730.37	0.006
730.56	0.006
730.76	0.006
730.95	0.006
731.14	0.005
731.34	0.005
731.53	0.005
731.72	0.005
731.91	0.005
732.11	0.005
732.30	0.006
732.49	0.005
732.69	0.005
732.88	0.005
733.07	0.005
733.26	0.005
733.46	0.005
733.65	0.005
733.84	0.005
734.03	0.004
734.23	0.004
734.42	0.003
734.61	0.004
734.80	0.004
735.00	0.004
735.19	0.004
735.38	0.004
735.57	0.004
735.77	0.003
735.96	0.003
736.15	0.003
736.34	0.003
736.54	0.004
736.73	0.004
736.92	0.003
737.11	0.003
737.31	0.003
737.50	0.003
737.69	0.003
737.88	0.003
738.07	0.004
738.27	0.004
738.46	0.004
738.65	0.004
738.84	0.004
739.04	0.004
739.23	0.004
739.42	0.004
739.61	0.004
739.80	0.003
740.00	0.003
740.19	0.003
740.38	0.003
740.57	0.003
740.76	0.003
740.96	0.003
741.15	0.003
741.34	0.004
741.53	0.004
741.72	0.004
741.92	0.004
742.11	0.004
742.30	0.004
742.49	0.004
742.68	0.004
742.88	0.005
743.07	0.004
743.26	0.004
743.45	0.004
743.64	0.004
743.84	0.004
744.03	0.005
744.22	0.005
744.41	0.005
744.60	0.005
744.79	0.005
744.99	0.005
745.18	0.005
745.37	0.004
745.56	0.004
745.75	0.004
745.94	0.004
746.14	0.004
746.33	0.004
746.52	0.005
746.71	0.004
746.90	0.004
747.09	0.004
747.28	0.005
747.48	0.005
747.67	0.005
747.86	0.005
748.05	0.005
748.24	0.005
748.43	0.005
748.62	0.005
748.82	0.006
749.01	0.005
749.20	0.005
749.39	0.005
749.58	0.006
749.77	0.006
749.96	0.005
750.16	0.006
750.35	0.006
750.54	0.006
750.73	0.006
750.92	0.006
751.11	0.006
751.30	0.006
751.49	0.006
751.68	0.005
751.88	0.005
752.07	0.005
752.26	0.005
752.45	0.005
752.64	0.005
752.83	0.005
753.02	0.005
753.21	0.006
753.40	0.006
753.60	0.006
753.79	0.006
753.98	0.006
754.17	0.006
754.36	0.007
754.55	0.007
754.74	0.007
754.93	0.007
755.12	0.007
755.31	0.007
755.50	0.007
755.70	0.007
755.89	0.007
756.08	0.007
756.27	0.008
756.46	0.008
756.65	0.008
756.84	0.008
757.03	0.008
757.22	0.008
757.41	0.008
757.60	0.008
757.79	0.008
757.98	0.008
758.17	0.008
758.36	0.007
758.56	0.007
758.75	0.007
758.94	0.008
759.13	0.008
759.32	0.007
759.51	0.007
759.70	0.007
759.89	0.007
760.08	0.007
760.27	0.007
760.46	0.007
760.65	0.007
760.84	0.007
761.03	0.007
761.22	0.007
761.41	0.007
761.60	0.007
761.79	0.008
761.98	0.008
762.17	0.008
762.36	0.008
762.55	0.008
762.74	0.008
762.93	0.008
763.12	0.008
763.31	0.008
763.50	0.007
763.69	0.007
763.88	0.007
764.07	0.007
764.26	0.007
764.45	0.007
764.64	0.007
764.83	0.007
765.02	0.007
765.21	0.007
765.40	0.007
765.59	0.007
765.78	0.007
765.97	0.007
766.16	0.006
766.35	0.006
766.54	0.006
766.73	0.006
766.92	0.006
767.11	0.006
767.30	0.006
767.49	0.006
767.68	0.005
767.87	0.005
768.06	0.005
768.25	0.005
768.44	0.005
768.63	0.005
768.82	0.005
769.01	0.005
769.20	0.004
769.39	0.004
769.58	0.004
769.77	0.004
769.96	0.004
770.15	0.004
770.34	0.004
770.53	0.004
770.72	0.004
770.91	0.004
771.10	0.004
771.29	0.004
771.47	0.004
771.66	0.004
771.85	0.004
772.04	0.004
772.23	0.004
772.42	0.004
772.61	0.004
772.80	0.004
772.99	0.004
773.18	0.004
773.37	0.004
773.56	0.004
773.75	0.004
773.94	0.004
774.13	0.004
774.31	0.004
774.50	0.004
774.69	0.004
774.88	0.004
775.07	0.004
775.26	0.005
775.45	0.004
775.64	0.004
775.83	0.004
776.02	0.004
776.21	0.004
776.40	0.003
776.58	0.003
776.77	0.003
776.96	0.003
777.15	0.003
777.34	0.003
777.53	0.003
777.72	0.003
777.91	0.003
778.10	0.003
778.28	0.002
778.47	0.003
778.66	0.002
778.85	0.002
779.04	0.003
779.23	0.003
779.42	0.002
779.61	0.002
779.79	0.003
779.98	0.003
780.17	0.003
780.36	0.003
780.55	0.003
780.74	0.003
780.93	0.003
781.12	0.003
781.30	0.003
781.49	0.003
781.68	0.003
781.87	0.003
782.06	0.003
782.25	0.003
782.44	0.003
782.62	0.003
782.81	0.004
783.00	0.003
783.19	0.003
783.38	0.003
783.57	0.004
783.75	0.004
783.94	0.004
784.13	0.004
784.32	0.004
784.51	0.004
784.70	0.004
784.88	0.004
785.07	0.004
785.26	0.004
785.45	0.004
785.64	0.003
785.83	0.003
786.01	0.003
786.20	0.003
786.39	0.003
786.58	0.003
786.77	0.003
786.95	0.002
787.14	0.003
787.33	0.003
787.52	0.003
787.71	0.003
787.90	0.003
788.08	0.003
788.27	0.003
788.46	0.003
788.65	0.003
788.84	0.003
789.02	0.003
789.21	0.003
789.40	0.003
789.59	0.003
789.77	0.003
789.96	0.003
790.15	0.003
790.34	0.003
790.53	0.003
790.71	0.003
790.90	0.003
791.09	0.003
791.28	0.004
791.46	0.004
791.65	0.004
791.84	0.004
792.03	0.004
792.22	0.004
792.40	0.004
792.59	0.004
792.78	0.004
792.97	0.004
793.15	0.005
793.34	0.005
793.53	0.005
793.72	0.005
793.90	0.005
794.09	0.005
794.28	0.005
794.47	0.005
794.65	0.005
794.84	0.005
795.03	0.005
795.22	0.005
795.40	0.005
795.59	0.005
795.78	0.005
795.97	0.005
796.15	0.005
796.34	0.005
796.53	0.005
796.71	0.005
796.90	0.005
797.09	0.005
797.28	0.005
797.46	0.005
797.65	0.005
797.84	0.005
798.02	0.006
798.21	0.006
798.40	0.006
798.59	0.006
798.77	0.006
798.96	0.006
799.15	0.005
799.33	0.005
799.52	0.006
799.71	0.006
799.90	0.006
800.08	0.006
800.27	0.005
800.46	0.005
800.64	0.005
800.83	0.005
801.02	0.005
801.20	0.005
801.39	0.005
801.58	0.005
801.76	0.005
801.95	0.005
802.14	0.005
802.32	0.005
802.51	0.005
802.70	0.005
802.88	0.005
803.07	0.005
803.26	0.005
803.44	0.005
803.63	0.005
803.82	0.005
804.00	0.005
804.19	0.005
804.38	0.005
804.56	0.005
804.75	0.005
804.94	0.005
805.12	0.005
805.31	0.005
805.50	0.006
805.68	0.006
805.87	0.006
806.06	0.006
806.24	0.006
806.43	0.006
806.62	0.006
806.80	0.006
806.99	0.006
807.17	0.006
807.36	0.006
807.55	0.006
807.73	0.006
807.92	0.006
808.11	0.006
808.29	0.006
808.48	0.006
808.66	0.006
808.85	0.006
809.04	0.006
809.22	0.006
809.41	0.007
809.59	0.006
809.78	0.007
809.97	0.007
810.15	0.006
810.34	0.006
810.53	0.006
810.71	0.006
810.90	0.006
811.08	0.006
811.27	0.006
811.45	0.006
811.64	0.006
811.83	0.006
812.01	0.006
812.20	0.006
812.38	0.006
812.57	0.006
812.76	0.006
812.94	0.006
813.13	0.006
813.31	0.005
813.50	0.005
813.68	0.005
813.87	0.005
814.06	0.006
814.24	0.005
814.43	0.005
814.61	0.006
814.80	0.005
814.98	0.005
815.17	0.005
815.36	0.006
815.54	0.006
815.73	0.006
815.91	0.006
816.10	0.006
816.28	0.006
816.47	0.006
816.65	0.006
816.84	0.006
817.03	0.006
817.21	0.006
817.40	0.006
817.58	0.006
817.77	0.006
817.95	0.006
818.14	0.006
818.32	0.006
818.51	0.006
818.69	0.006
818.88	0.006
819.06	0.006
819.25	0.006
819.43	0.006
819.62	0.006
819.80	0.006
819.99	0.006
820.18	0.006
820.36	0.006
820.55	0.006
820.73	0.006
820.92	0.006
821.10	0.006
821.29	0.006
821.47	0.006
821.66	0.006
821.84	0.006
822.03	0.006
822.21	0.006
822.40	0.005
822.58	0.005
822.77	0.006
822.95	0.006
823.14	0.006
823.32	0.006
823.50	0.005
823.69	0.005
823.87	0.005
824.06	0.005
824.24	0.005
824.43	0.005
824.61	0.005
824.80	0.005
824.98	0.004
825.17	0.004
825.35	0.004
825.54	0.004
825.72	0.004
825.91	0.004
826.09	0.004
826.28	0.005
826.46	0.004
826.64	0.004
826.83	0.004
827.01	0.004
827.20	0.004
827.38	0.004
827.57	0.004
827.75	0.004
827.94	0.004
828.12	0.003
828.31	0.003
828.49	0.003
828.67	0.002
828.86	0.002
829.04	0.002
829.23	0.002
829.41	0.002
829.60	0.002
829.78	0.002
829.96	0.002
830.15	0.002
830.33	0.002
830.52	0.002
830.70	0.002
830.88	0.002
831.07	0.002
831.25	0.002
831.44	0.001
831.62	0.001
831.81	0.001
831.99	0.001
832.17	0.001
832.36	0.001
832.54	0.001
832.73	0.001
832.91	0.001
833.09	0.001
833.28	0.001
833.46	0.001
833.65	0.001
833.83	0.001
834.01	0.000
834.20	0.000
834.38	0.000
834.56	0.001
834.75	0.000
834.93	0.000
835.12	0.000
835.30	0.000
835.48	0.000
835.67	-0.000
835.85	-0.000
836.03	-0.000
836.22	-0.000
836.40	-0.000
836.59	-0.000
836.77	-0.000
836.95	-0.000
837.14	-0.000
837.32	0.000
837.50	0.000
837.69	0.000
837.87	0.000
838.05	0.000
838.24	0.001
838.42	0.000
838.60	0.000
838.79	0.000
838.97	-0.000
839.15	0.000
839.34	-0.000
839.52	-0.001
839.70	-0.000
839.89	-0.001
840.07	-0.001
840.25	-0.001
840.44	-0.001
840.62	-0.001
840.80	-0.002
840.99	-0.001
841.17	-0.002
841.35	-0.002
841.54	-0.001
841.72	-0.002
841.90	-0.002
842.09	-0.002
842.27	-0.002
842.45	-0.001
842.64	-0.002
842.82	-0.002
843.00	-0.002
843.19	-0.002
843.37	-0.002
843.55	-0.002
843.73	-0.002
843.92	-0.002
844.10	-0.002
844.28	-0.002
844.47	-0.002
844.65	-0.002
844.83	-0.001
845.01	-0.001
845.20	-0.001
845.38	-0.001
845.56	-0.001
845.75	-0.001
845.93	-0.002
846.11	-0.001
846.29	-0.001
846.48	-0.001
846.66	-0.002
846.84	-0.002
847.02	-0.002
847.21	-0.001
847.39	-0.001
847.57	-0.001
847.76	-0.001
847.94	-0.001
848.12	-0.001
848.30	-0.001
848.49	-0.001
848.67	-0.001
848.85	-0.001
849.03	-0.001
849.22	-0.001
849.40	-0.001
849.58	-0.001
849.76	-0.002
849.95	-0.001
850.13	-0.001
850.31	-0.001
850.49	-0.001
850.67	-0.001
850.86	-0.001
851.04	-0.001
851.22	-0.001
851.40	-0.002
851.59	-0.001
851.77	-0.002
851.95	-0.002
852.13	-0.002
852.31	-0.002
852.50	-0.002
852.68	-0.002
852.86	-0.002
853.04	-0.003
853.23	-0.003
853.41	-0.003
853.59	-0.003
853.77	-0.003
853.95	-0.003
854.14	-0.002
854.32	-0.002
854.50	-0.003
854.68	-0.003
854.86	-0.003
855.04	-0.003
855.23	-0.003
855.41	-0.003
855.59	-0.002
855.77	-0.003
855.95	-0.003
856.14	-0.003
856.32	-0.004
856.50	-0.004
856.68	-0.004
856.86	-0.004
857.04	-0.004
857.23	-0.004
857.41	-0.004
857.59	-0.004
857.77	-0.004
857.95	-0.004
858.13	-0.004
858.32	-0.004
858.50	-0.004
858.68	-0.004
858.86	-0.004
859.04	-0.004
859.22	-0.003
859.41	-0.004
859.59	-0.004
859.77	-0.004
859.95	-0.003
860.13	-0.003
860.31	-0.003
860.49	-0.003
860.68	-0.003
860.86	-0.003
861.04	-0.003
861.22	-0.003
861.40	-0.003
861.58	-0.003
861.76	-0.003
861.94	-0.003
862.13	-0.003
862.31	-0.003
862.49	-0.003
862.67	-0.003
862.85	-0.003
863.03	-0.003
863.21	-0.003
863.39	-0.003
863.57	-0.003
863.76	-0.004
863.94	-0.003
864.12	-0.003
864.30	-0.003
864.48	-0.004
864.66	-0.003
864.84	-0.004
865.02	-0.004
865.20	-0.004
865.38	-0.004
865.57	-0.004
865.75	-0.003
865.93	-0.003
866.11	-0.004
866.29	-0.004
866.47	-0.003
866.65	-0.004
866.83	-0.003
867.01	-0.003
867.19	-0.003
867.37	-0.003
867.55	-0.003
867.73	-0.003
867.92	-0.003
868.10	-0.003
868.28	-0.002
868.46	-0.002
868.64	-0.002
868.82	-0.002
869.00	-0.002
869.18	-0.002
869.36	-0.002
869.54	-0.001
869.72	-0.001
869.90	-0.002
870.08	-0.002
870.26	-0.001
870.44	-0.001
870.62	-0.001
870.80	-0.001
870.98	-0.001
871.16	-0.001
871.34	-0.000
871.53	-0.000
871.71	-0.000
871.89	-0.000
872.07	0.000
872.25	0.000
872.43	0.000
872.61	0.000
872.79	0.001
872.97	0.000
873.15	0.000
873.33	0.000
873.51	0.001
873.69	0.000
873.87	0.001
874.05	0.001
874.23	0.001
874.41	0.001
874.59	0.001
874.77	0.001
874.95	0.001
875.13	0.001
875.31	0.001
875.49	0.001
875.67	0.001
875.85	0.001
876.03	0.000
876.21	0.001
876.39	0.000
876.57	0.001
876.75	0.001
876.93	0.000
877.11	0.000
877.29	-0.000
877.47	-0.000
877.65	-0.000
877.82	-0.000
878.00	-0.000
878.18	-0.000
878.36	-0.000
878.54	-0.000
878.72	-0.000
878.90	-0.001
879.08	-0.000
879.26	0.000
879.44	0.000
879.62	0.000
879.80	-0.000
879.98	-0.000
880.16	-0.000
880.34	-0.000
880.52	-0.000
880.70	-0.000
880.88	-0.000
881.06	-0.001
881.24	-0.001
881.42	-0.001
881.59	-0.001
881.77	-0.001
881.95	-0.001
882.13	-0.002
882.31	-0.002
882.49	-0.001
882.67	-0.002
882.85	-0.001
883.03	-0.001
883.21	-0.001
883.39	-0.001
883.57	-0.001
883.75	-0.001
883.92	-0.001
884.10	-0.000
884.28	-0.000
884.46	-0.001
884.64	-0.001
884.82	-0.001
885.00	-0.001
885.18	-0.001
885.36	-0.001
885.54	-0.001
885.71	-0.001
885.89	-0.001
886.07	-0.002
886.25	-0.002
886.43	-0.002
886.61	-0.001
886.79	-0.001
886.97	-0.002
887.15	-0.001
887.32	-0.001
887.50	-0.001
887.68	-0.001
887.86	-0.001
888.04	-0.001
888.22	-0.002
888.40	-0.001
888.57	-0.001
888.75	-0.001
888.93	-0.001
889.11	-0.002
889.29	-0.002
889.47	-0.002
889.65	-0.002
889.82	-0.002
890.00	-0.001
890.18	-0.001
890.36	-0.001
890.54	-0.001
890.72	-0.001
890.90	-0.001
891.07	-0.001
891.25	-0.001
891.43	-0.001
891.61	-0.001
891.79	-0.000
891.97	-0.000
892.14	0.000
892.32	0.000
892.50	0.000
892.68	0.001
892.86	0.001
893.03	0.001
893.21	0.001
893.39	0.001
893.57	0.001
893.75	0.001
893.93	0.001
894.10	0.001
894.28	0.001
894.46	0.002
894.64	0.002
894.82	0.002
894.99	0.002
895.17	0.002
895.35	0.001
895.53	0.001
895.71	0.001
895.88	0.001
896.06	0.001
896.24	0.001
896.42	0.001
896.59	0.001
896.77	0.001
896.95	0.001
897.13	0.001
897.31	0.000
897.48	0.000
897.66	0.000
897.84	0.001
898.02	0.001
898.19	0.001
898.37	0.001
898.55	0.001
898.73	0.001
898.91	0.001
899.08	0.001
899.26	0.001
899.44	0.001
899.62	0.001
899.79	0.001
899.97	0.001
900.15	0.001
900.33	0.002
900.50	0.001
900.68	0.002
900.86	0.002
901.04	0.002
901.21	0.002
901.39	0.002
901.57	0.002
901.74	0.002
901.92	0.002
902.10	0.002
902.28	0.002
902.45	0.002
902.63	0.002
902.81	0.002
902.99	0.002
903.16	0.002
903.34	0.003
903.52	0.003
903.69	0.003
903.87	0.003
904.05	0.004
904.22	0.004
904.40	0.004
904.58	0.004
904.76	0.004
904.93	0.005
905.11	0.005
905.29	0.005
905.46	0.005
905.64	0.005
905.82	0.005
905.99	0.005
906.17	0.005
906.35	0.005
906.53	0.006
906.70	0.006
906.88	0.006
907.06	0.006
907.23	0.007
907.41	0.007
907.59	0.008
907.76	0.008
907.94	0.008
908.12	0.009
908.29	0.009
908.47	0.010
908.65	0.010
908.82	0.010
909.00	0.011
909.18	0.011
909.35	0.011
909.53	0.011
909.71	0.011
909.88	0.012
910.06	0.012
910.23	0.012
910.41	0.012
910.59	0.013
910.76	0.013
910.94	0.013
911.12	0.013
911.29	0.014
911.47	0.014
911.65	0.014
911.82	0.014
912.00	0.015
912.17	0.015
912.35	0.015
912.53	0.016
912.70	0.016
912.88	0.016
913.06	0.017
913.23	0.017
913.41	0.017
913.58	0.017
913.76	0.018
913.94	0.018
914.11	0.018
914.29	0.018
914.46	0.018
914.64	0.018
914.82	0.019
914.99	0.019
915.17	0.020
915.34	0.020
915.52	0.020
915.70	0.020
915.87	0.020
916.05	0.021
916.22	0.021
916.40	0.021
916.57	0.022
916.75	0.022
916.93	0.022
917.10	0.022
917.28	0.023
917.45	0.023
917.63	0.023
917.80	0.024
917.98	0.024
918.16	0.025
918.33	0.025
918.51	0.025
918.68	0.026
918.86	0.026
919.03	0.026
919.21	0.026
919.39	0.027
919.56	0.027
919.74	0.027
919.91	0.028
920.09	0.028
920.26	0.028
920.44	0.028
920.61	0.028
920.79	0.028
920.96	0.029
921.14	0.029
921.31	0.029
921.49	0.030
921.67	0.030
921.84	0.030
922.02	0.031
922.19	0.031
922.37	0.031
922.54	0.032
922.72	0.032
922.89	0.032
923.07	0.033
923.24	0.033
923.42	0.034
923.59	0.034
923.77	0.034
923.94	0.034
924.12	0.034
924.29	0.035
924.47	0.035
924.64	0.035
924.82	0.035
924.99	0.036
925.17	0.036
925.34	0.036
925.52	0.036
925.69	0.036
925.87	0.036
926.04	0.037
926.22	0.036
926.39	0.036
926.57	0.037
926.74	0.036
926.91	0.036
927.09	0.036
927.26	0.036
927.44	0.036
927.61	0.036
927.79	0.036
927.96	0.035
928.14	0.035
928.31	0.035
928.49	0.035
928.66	0.035
928.84	0.034
929.01	0.034
929.18	0.034
929.36	0.034
929.53	0.034
929.71	0.033
929.88	0.033
930.06	0.032
930.23	0.032
930.41	0.031
930.58	0.031
930.75	0.030
930.93	0.030
931.10	0.029
931.28	0.028
931.45	0.027
931.63	0.026
931.80	0.025
931.97	0.024
932.15	0.024
932.32	0.023
932.50	0.022
932.67	0.021
932.84	0.020
933.02	0.019
933.19	0.019
933.37	0.018
933.54	0.017
933.71	0.016
933.89	0.015
934.06	0.013
934.24	0.012
934.41	0.011
934.58	0.011
934.76	0.009
934.93	0.008
935.11	0.007
935.28	0.006
935.45	0.005
935.63	0.004
935.80	0.003
935.98	0.002
936.15	0.000
936.32	-0.001
936.50	-0.002
936.67	-0.004
936.84	-0.005
937.02	-0.007
937.19	-0.008
937.36	-0.010
937.54	-0.012
937.71	-0.013
937.89	-0.015
938.06	-0.016
938.23	-0.017
938.41	-0.019
938.58	-0.020
938.75	-0.021
938.93	-0.022
939.10	-0.024
939.27	-0.025
939.45	-0.026
939.62	-0.027
939.79	-0.028
939.97	-0.030
940.14	-0.031
940.31	-0.033
940.49	-0.034
940.66	-0.035
940.83	-0.037
941.01	-0.038
941.18	-0.039
941.35	-0.041
941.53	-0.042
941.70	-0.043
941.87	-0.044
942.05	-0.046
942.22	-0.047
942.39	-0.049
942.57	-0.050
942.74	-0.051
942.91	-0.053
943.08	-0.054
943.26	-0.055
943.43	-0.056
943.60	-0.057
943.78	-0.059
943.95	-0.060
944.12	-0.061
944.29	-0.063
944.47	-0.064
944.64	-0.066
944.81	-0.067
944.99	-0.068
945.16	-0.069
945.33	-0.071
945.50	-0.072
945.68	-0.073
945.85	-0.074
946.02	-0.075
946.20	-0.077
946.37	-0.078
946.54	-0.079
946.71	-0.080
946.89	-0.081
947.06	-0.082
947.23	-0.084
947.40	-0.085
947.58	-0.086
947.75	-0.088
947.92	-0.089
948.09	-0.090
948.27	-0.091
948.44	-0.092
948.61	-0.093
948.78	-0.095
948.96	-0.096
949.13	-0.098
949.30	-0.099
949.47	-0.101
949.65	-0.102
949.82	-0.103
949.99	-0.105
950.16	-0.107
950.33	-0.108
950.51	-0.110
950.68	-0.111
950.85	-0.112
951.02	-0.114
951.20	-0.115
951.37	-0.117
951.54	-0.118
951.71	-0.120
951.88	-0.121
952.06	-0.122
952.23	-0.124
952.40	-0.126
952.57	-0.127
952.74	-0.128
952.92	-0.130
953.09	-0.132
953.26	-0.133
953.43	-0.134
953.60	-0.136
953.77	-0.137
953.95	-0.138
954.12	-0.139
954.29	-0.140
954.46	-0.142
954.63	-0.143
954.81	-0.144
954.98	-0.145
955.15	-0.147
955.32	-0.148
955.49	-0.149
955.66	-0.151
955.84	-0.153
956.01	-0.154
956.18	-0.155
956.35	-0.156
956.52	-0.157
956.69	-0.158
956.87	-0.160
957.04	-0.161
957.21	-0.162
957.38	-0.163
957.55	-0.164
957.72	-0.165
957.89	-0.166
958.07	-0.166
958.24	-0.168
958.41	-0.169
958.58	-0.170
958.75	-0.170
958.92	-0.171
959.09	-0.171
959.26	-0.172
959.44	-0.173
959.61	-0.174
959.78	-0.175
959.95	-0.176
960.12	-0.176
960.29	-0.177
960.46	-0.178
960.63	-0.178
960.81	-0.179
960.98	-0.180
961.15	-0.180
961.32	-0.181
961.49	-0.181
961.66	-0.181
961.83	-0.182
962.00	-0.182
962.17	-0.182
962.34	-0.182
962.52	-0.183
962.69	-0.183
962.86	-0.183
963.03	-0.183
963.20	-0.184
963.37	-0.184
963.54	-0.185
963.71	-0.186
963.88	-0.186
964.05	-0.186
964.22	-0.186
964.39	-0.187
964.56	-0.187
964.74	-0.187
964.91	-0.187
965.08	-0.187
965.25	-0.187
965.42	-0.188
965.59	-0.188
965.76	-0.187
965.93	-0.188
966.10	-0.188
966.27	-0.189
966.44	-0.189
966.61	-0.189
966.78	-0.189
966.95	-0.189
967.12	-0.190
967.29	-0.190
967.46	-0.190
967.63	-0.190
967.80	-0.190
967.97	-0.190
968.14	-0.190
968.32	-0.190
968.49	-0.190
968.66	-0.191
968.83	-0.191
969.00	-0.191
969.17	-0.191
969.34	-0.190
969.51	-0.191
969.68	-0.192
969.85	-0.192
970.02	-0.192
970.19	-0.192
970.36	-0.192
970.53	-0.193
970.70	-0.193
970.87	-0.193
971.04	-0.193
971.21	-0.193
971.38	-0.193
971.55	-0.193
971.72	-0.193
971.89	-0.193
972.06	-0.193
972.23	-0.193
972.40	-0.193
972.57	-0.193
972.74	-0.193
972.91	-0.193
973.07	-0.194
973.24	-0.194
973.41	-0.194
973.58	-0.194
973.75	-0.194
973.92	-0.194
974.09	-0.194
974.26	-0.194
974.43	-0.194
974.60	-0.194
974.77	-0.194
974.94	-0.194
975.11	-0.193
975.28	-0.194
975.45	-0.194
975.62	-0.194
975.79	-0.194
975.96	-0.194
976.13	-0.194
976.30	-0.195
976.47	-0.195
976.64	-0.196
976.80	-0.196
976.97	-0.196
977.14	-0.195
977.31	-0.195
977.48	-0.195
977.65	-0.195
977.82	-0.194
977.99	-0.194
978.16	-0.194
978.33	-0.194
978.50	-0.194
978.67	-0.194
978.83	-0.194
979.00	-0.194
979.17	-0.194
979.34	-0.194
979.51	-0.194
979.68	-0.194
979.85	-0.194
980.02	-0.194
980.19	-0.194
980.36	-0.194
980.52	-0.194
980.69	-0.193
980.86	-0.193
981.03	-0.193
981.20	-0.193
981.37	-0.192
981.54	-0.192
981.71	-0.192
981.88	-0.191
982.04	-0.191
982.21	-0.190
982.38	-0.190
982.55	-0.190
982.72	-0.189
982.89	-0.189
983.06	-0.188
983.22	-0.188
983.39	-0.188
983.56	-0.188
983.73	-0.188
983.90	-0.188
984.07	-0.188
984.24	-0.187
984.40	-0.187
984.57	-0.187
984.74	-0.187
984.91	-0.187
985.08	-0.186
985.25	-0.186
985.41	-0.186
985.58	-0.186
985.75	-0.185
985.92	-0.185
986.09	-0.185
986.26	-0.184
986.42	-0.184
986.59	-0.184
986.76	-0.183
986.93	-0.184
987.10	-0.184
987.27	-0.183
987.43	-0.183
987.60	-0.182
987.77	-0.182
987.94	-0.181
988.11	-0.180
988.27	-0.181
988.44	-0.180
988.61	-0.180
988.78	-0.179
988.95	-0.177
989.11	-0.177
989.28	-0.177
989.45	-0.177
989.62	-0.177
989.79	-0.177
989.95	-0.176
990.12	-0.175
990.29	-0.175
990.46	-0.175
990.62	-0.175
990.79	-0.175
990.96	-0.175
991.13	-0.174
991.30	-0.174
991.46	-0.173
991.63	-0.173
991.80	-0.173
991.97	-0.173
992.13	-0.173
992.30	-0.172
992.47	-0.172
992.64	-0.172
992.80	-0.171
992.97	-0.171
993.14	-0.170
993.31	-0.170
993.47	-0.170
993.64	-0.169
993.81	-0.169
993.98	-0.168
994.14	-0.168
994.31	-0.168
994.48	-0.167
994.64	-0.167
994.81	-0.167
994.98	-0.166
995.15	-0.166
995.31	-0.165
995.48	-0.165
995.65	-0.164
995.82	-0.164
995.98	-0.163
996.15	-0.163
996.32	-0.162
996.48	-0.162
996.65	-0.160
996.82	-0.160
996.99	-0.160
997.15	-0.160
997.32	-0.160
997.49	-0.159
997.65	-0.159
997.82	-0.158
997.99	-0.157
998.15	-0.157
998.32	-0.157
998.49	-0.157
998.65	-0.157
998.82	-0.156
998.99	-0.155
999.15	-0.155
999.32	-0.154
999.49	-0.154
999.65	-0.153
999.82	-0.152
999.99	-0.152
1000.15	-0.151
1000.32	-0.151
1000.49	-0.151
1000.65	-0.150
1000.82	-0.150
1000.99	-0.150
1001.15	-0.149
1001.32	-0.148
1001.49	-0.149
1001.65	-0.148
1001.82	-0.148
1001.99	-0.147
1002.15	-0.147
1002.32	-0.146
1002.49	-0.146
1002.65	-0.145
1002.82	-0.144
1002.99	-0.143
1003.15	-0.143
1003.32	-0.142
1003.48	-0.142
1003.65	-0.141
1003.82	-0.141
1003.98	-0.141
1004.15	-0.140
1004.32	-0.139
1004.48	-0.138
1004.65	-0.139
1004.81	-0.139
1004.98	-0.138
1005.15	-0.138
1005.31	-0.137
1005.48	-0.136
1005.64	-0.135
1005.81	-0.135
1005.98	-0.135
1006.14	-0.134
1006.31	-0.133
1006.47	-0.132
1006.64	-0.132
1006.81	-0.132
1006.97	-0.130
1007.14	-0.130
1007.30	-0.130
1007.47	-0.130
1007.63	-0.129
1007.80	-0.129
1007.97	-0.129
1008.13	-0.128
1008.30	-0.128
1008.46	-0.127
1008.63	-0.127
1008.79	-0.127
1008.96	-0.126
1009.13	-0.125
1009.29	-0.124
1009.46	-0.124
1009.62	-0.123
1009.79	-0.122
1009.95	-0.122
1010.12	-0.122
1010.28	-0.121
1010.45	-0.120
1010.62	-0.120
1010.78	-0.120
1010.95	-0.119
1011.11	-0.118
1011.28	-0.119
1011.44	-0.117
1011.61	-0.117
1011.77	-0.116
1011.94	-0.115
1012.10	-0.114
1012.27	-0.113
1012.43	-0.112
1012.60	-0.112
1012.76	-0.112
1012.93	-0.112
1013.10	-0.111
1013.26	-0.111
1013.43	-0.110
1013.59	-0.109
1013.76	-0.109
1013.92	-0.108
1014.09	-0.107
1014.25	-0.106
1014.42	-0.106
1014.58	-0.105
1014.75	-0.104
1014.91	-0.103
1015.08	-0.102
1015.24	-0.101
1015.41	-0.101
1015.57	-0.101
1015.73	-0.101
1015.90	-0.101
1016.06	-0.102
1016.23	-0.101
1016.39	-0.101
1016.56	-0.100
1016.72	-0.101
1016.89	-0.100
1017.05	-0.100
1017.22	-0.100
1017.38	-0.100
1017.55	-0.099
1017.71	-0.098
1017.88	-0.097
1018.04	-0.096
1018.21	-0.096
1018.37	-0.096
1018.53	-0.095
1018.70	-0.094
1018.86	-0.093
1019.03	-0.093
1019.19	-0.092
1019.36	-0.092
1019.52	-0.092
1019.69	-0.092
1019.85	-0.092
1020.01	-0.091
1020.18	-0.092
1020.34	-0.091
1020.51	-0.091
1020.67	-0.092
1020.84	-0.091
1021.00	-0.091
1021.16	-0.090
1021.33	-0.089
1021.49	-0.088
1021.66	-0.087
1021.82	-0.087
1021.98	-0.085
1022.15	-0.085
1022.31	-0.085
1022.48	-0.083
1022.64	-0.083
1022.80	-0.082
1022.97	-0.082
1023.13	-0.082
1023.30	-0.082
1023.46	-0.082
1023.62	-0.082
1023.79	-0.082
1023.95	-0.082
1024.12	-0.081
1024.28	-0.080
1024.44	-0.080
1024.61	-0.080
1024.77	-0.080
1024.93	-0.079
1025.10	-0.079
1025.26	-0.078
1025.43	-0.078
1025.59	-0.077
1025.75	-0.076
1025.92	-0.076
1026.08	-0.077
1026.24	-0.075
1026.41	-0.075
1026.57	-0.074
1026.73	-0.075
1026.90	-0.075
1027.06	-0.074
1027.23	-0.074
1027.39	-0.073
1027.55	-0.073
1027.72	-0.072
1027.88	-0.071
1028.04	-0.071
1028.21	-0.071
1028.37	-0.071
1028.53	-0.070
1028.70	-0.068
1028.86	-0.069
1029.02	-0.067
1029.19	-0.067
1029.35	-0.067
1029.51	-0.066
1029.67	-0.065
1029.84	-0.064
1030.00	-0.064
1030.16	-0.062
1030.33	-0.062
1030.49	-0.062
1030.65	-0.062
1030.82	-0.062
1030.98	-0.061
1031.14	-0.060
1031.31	-0.060
1031.47	-0.061
1031.63	-0.060
1031.79	-0.060
1031.96	-0.060
1032.12	-0.060
1032.28	-0.059
1032.45	-0.059
1032.61	-0.059
1032.77	-0.059
1032.93	-0.059
1033.10	-0.058
1033.26	-0.056
1033.42	-0.056
1033.58	-0.055
1033.75	-0.054
1033.91	-0.053
1034.07	-0.053
1034.24	-0.052
1034.40	-0.050
1034.56	-0.050
1034.72	-0.049
1034.89	-0.049
1035.05	-0.049
1035.21	-0.049
1035.37	-0.049
1035.54	-0.049
1035.70	-0.048
1035.86	-0.047
1036.02	-0.046
1036.19	-0.046
1036.35	-0.047
1036.51	-0.047
1036.67	-0.048
1036.83	-0.048
1037.00	-0.047
1037.16	-0.046
1037.32	-0.047
1037.48	-0.048
1037.65	-0.047
1037.81	-0.047
1037.97	-0.048
1038.13	-0.047
1038.29	-0.046
1038.46	-0.046
1038.62	-0.047
1038.78	-0.049
1038.94	-0.049
1039.10	-0.048
1039.27	-0.048
1039.43	-0.048
1039.59	-0.047
1039.75	-0.047
1039.91	-0.046
1040.08	-0.045
1040.24	-0.045
1040.40	-0.044
1040.56	-0.042
1040.72	-0.041
1040.89	-0.040
1041.05	-0.040
1041.21	-0.040
1041.37	-0.040
1041.53	-0.039
1041.69	-0.038
1041.86	-0.039
1042.02	-0.038
1042.18	-0.038
1042.34	-0.037
1042.50	-0.039
1042.66	-0.039
1042.83	-0.038
1042.99	-0.039
1043.15	-0.038
1043.31	-0.038
1043.47	-0.040
1043.63	-0.040
1043.79	-0.040
1043.96	-0.039
1044.12	-0.040
1044.28	-0.039
1044.44	-0.039
1044.60	-0.038
1044.76	-0.039
1044.92	-0.039
1045.09	-0.039
1045.25	-0.038
1045.41	-0.037
1045.57	-0.037
1045.73	-0.036
1045.89	-0.036
1046.05	-0.037
1046.21	-0.034
1046.38	-0.037
1046.54	-0.034
1046.70	-0.040
1046.86	-0.038
>>>>>End Processed Spectral Data<<<<<
