SpectraSuite Data File
++++++++++++++++++++++++++++++++++++
Date: Mon May 06 14:15:52 CDT 2013
User: Students
Dark Spectrum Present: Yes
Reference Spectrum Present: Yes
Number of Sampled Component Spectra: 1
Spectrometers: USB4H00887
Integration Time (usec): 25000 (USB4H00887)
Spectra Averaged: 10 (USB4H00887)
Boxcar Smoothing: 10 (USB4H00887)
Correct for Electrical Dark: No (USB4H00887)
Strobe/Lamp Enabled: No (USB4H00887)
Correct for Detector Non-linearity: No (USB4H00887)
Correct for Stray Light: No (USB4H00887)
Number of Pixels in Processed Spectrum: 3648
>>>>>Begin Processed Spectral Data<<<<<
345.83	-0.000
346.05	-0.000
346.26	-0.000
346.48	-0.041
346.70	-0.000
346.92	-0.000
347.14	-0.000
347.35	-0.000
347.57	0.211
347.79	-0.195
348.01	1.748
348.23	-0.000
348.44	-0.000
348.66	-0.000
348.88	-0.000
349.10	-0.000
349.32	-0.000
349.53	-0.000
349.75	-0.000
349.97	-0.000
350.19	-0.000
350.41	-0.000
350.62	-0.000
350.84	-0.000
351.06	-0.000
351.28	-0.000
351.50	-0.000
351.71	-0.000
351.93	-0.000
352.15	-0.000
352.37	-0.000
352.58	-0.000
352.80	-0.000
353.02	-0.000
353.24	-0.000
353.46	-0.000
353.67	-0.000
353.89	-0.000
354.11	-0.000
354.33	-0.000
354.54	-0.000
354.76	-0.000
354.98	-0.000
355.20	-0.000
355.41	-0.000
355.63	-0.000
355.85	-0.000
356.07	-0.000
356.28	-0.000
356.50	-0.000
356.72	-0.000
356.94	-0.000
357.15	-0.000
357.37	-0.000
357.59	-0.000
357.81	-0.000
358.02	-0.000
358.24	-0.000
358.46	-0.000
358.68	-0.000
358.89	-0.000
359.11	-0.000
359.33	0.963
359.55	0.846
359.76	0.714
359.98	0.758
360.20	1.093
360.42	1.614
360.63	1.121
360.85	1.118
361.07	1.715
361.29	1.390
361.50	2.180
361.72	-0.000
361.94	-0.000
362.15	-0.000
362.37	-0.000
362.59	-0.000
362.81	-0.000
363.02	-0.000
363.24	-0.000
363.46	-0.000
363.68	-0.000
363.89	-0.000
364.11	-0.000
364.33	-0.000
364.54	-0.000
364.76	-0.000
364.98	-0.000
365.20	-0.000
365.41	-0.000
365.63	-0.000
365.85	-0.000
366.06	-0.000
366.28	-0.000
366.50	-0.000
366.71	-0.000
366.93	-0.000
367.15	-0.000
367.37	-0.000
367.58	-0.000
367.80	-0.000
368.02	-0.000
368.23	-0.000
368.45	-0.000
368.67	-0.000
368.88	-0.000
369.10	-0.000
369.32	-0.000
369.53	-0.000
369.75	-0.000
369.97	-0.000
370.19	-0.000
370.40	1.473
370.62	1.115
370.84	0.872
371.05	0.914
371.27	0.634
371.49	0.743
371.70	0.793
371.92	0.866
372.14	0.786
372.35	0.791
372.57	0.873
372.79	0.746
373.00	0.538
373.22	0.761
373.44	1.121
373.65	1.376
373.87	1.190
374.09	1.326
374.30	1.032
374.52	1.103
374.74	-0.000
374.95	-0.000
375.17	-0.000
375.39	-0.000
375.60	-0.000
375.82	-0.000
376.04	-0.000
376.25	-0.000
376.47	-0.000
376.68	-0.000
376.90	-0.000
377.12	-0.000
377.33	-0.000
377.55	-0.000
377.77	-0.000
377.98	-0.000
378.20	-0.000
378.42	-0.000
378.63	-0.000
378.85	-0.000
379.07	-0.000
379.28	-0.000
379.50	-0.000
379.71	-0.000
379.93	-0.000
380.15	-0.000
380.36	-0.000
380.58	-0.000
380.80	-0.000
381.01	-0.000
381.23	-0.000
381.44	-0.000
381.66	-0.000
381.88	-0.000
382.09	-0.000
382.31	-0.000
382.53	-0.000
382.74	-0.000
382.96	-0.000
383.17	-0.000
383.39	-0.000
383.61	-0.000
383.82	-0.000
384.04	-0.000
384.25	-0.000
384.47	-0.000
384.69	-0.000
384.90	-0.000
385.12	-0.000
385.33	-0.000
385.55	-0.000
385.77	-0.000
385.98	-0.000
386.20	-0.000
386.41	-0.000
386.63	-0.000
386.85	-0.000
387.06	-0.000
387.28	-0.000
387.49	-0.000
387.71	-0.000
387.93	-0.000
388.14	-0.000
388.36	-0.000
388.57	2.069
388.79	1.351
389.01	1.283
389.22	1.279
389.44	1.215
389.65	1.262
389.87	1.189
390.08	1.146
390.30	1.093
390.52	1.605
390.73	1.993
390.95	2.876
391.16	2.101
391.38	1.917
391.59	-0.000
391.81	-0.000
392.03	-0.000
392.24	-0.000
392.46	-0.000
392.67	-0.000
392.89	-0.000
393.10	-0.000
393.32	-0.000
393.53	-0.000
393.75	-0.000
393.97	-0.000
394.18	-0.000
394.40	-0.000
394.61	-0.000
394.83	-0.000
395.04	-0.000
395.26	-0.000
395.47	-0.000
395.69	-0.000
395.91	-0.000
396.12	-0.000
396.34	-0.000
396.55	1.991
396.77	1.658
396.98	1.647
397.20	1.731
397.41	1.518
397.63	1.411
397.84	1.619
398.06	1.539
398.27	1.407
398.49	1.209
398.71	1.383
398.92	1.321
399.14	1.484
399.35	1.728
399.57	1.620
399.78	1.852
400.00	1.575
400.21	1.550
400.43	1.821
400.64	1.797
400.86	1.361
401.07	1.427
401.29	1.277
401.50	1.422
401.72	1.928
401.93	1.647
402.15	-0.000
402.36	2.025
402.58	-0.000
402.79	-0.000
403.01	-0.000
403.22	1.974
403.44	2.022
403.65	2.343
403.87	-0.000
404.08	-0.000
404.30	-0.000
404.51	-0.000
404.73	-0.000
404.94	-0.000
405.16	-0.000
405.37	-0.000
405.59	-0.000
405.80	-0.000
406.02	-0.000
406.23	-0.000
406.45	-0.000
406.66	-0.000
406.88	-0.000
407.09	-0.000
407.31	-0.000
407.52	-0.000
407.74	-0.000
407.95	-0.000
408.17	-0.000
408.38	-0.000
408.60	-0.000
408.81	-0.000
409.03	-0.000
409.24	-0.000
409.45	-0.000
409.67	-0.000
409.88	-0.000
410.10	-0.000
410.31	-0.000
410.53	-0.000
410.74	2.162
410.96	-0.000
411.17	-0.000
411.39	-0.000
411.60	-0.000
411.82	-0.000
412.03	-0.000
412.24	-0.000
412.46	-0.000
412.67	-0.000
412.89	2.362
413.10	2.192
413.32	-0.000
413.53	-0.000
413.75	-0.000
413.96	-0.000
414.17	-0.000
414.39	-0.000
414.60	-0.000
414.82	-0.000
415.03	-0.000
415.25	-0.000
415.46	-0.000
415.68	-0.000
415.89	-0.000
416.10	-0.000
416.32	-0.000
416.53	-0.000
416.75	-0.000
416.96	-0.000
417.18	-0.000
417.39	-0.000
417.60	-0.000
417.82	-0.000
418.03	-0.000
418.25	-0.000
418.46	-0.000
418.67	-0.000
418.89	-0.000
419.10	-0.000
419.32	-0.000
419.53	-0.000
419.75	-0.000
419.96	-0.000
420.17	-0.000
420.39	-0.000
420.60	-0.000
420.82	-0.000
421.03	-0.000
421.24	-0.000
421.46	-0.000
421.67	-0.000
421.89	-0.000
422.10	-0.000
422.31	-0.000
422.53	-0.000
422.74	3.726
422.96	2.020
423.17	1.797
423.38	1.808
423.60	1.718
423.81	1.739
424.03	1.755
424.24	1.774
424.45	-0.000
424.67	-0.000
424.88	-0.000
425.09	-0.000
425.31	-0.000
425.52	-0.000
425.74	-0.000
425.95	-0.000
426.16	-0.000
426.38	-0.000
426.59	-0.000
426.80	-0.000
427.02	-0.000
427.23	-0.000
427.45	-0.000
427.66	-0.000
427.87	-0.000
428.09	-0.000
428.30	-0.000
428.51	-0.000
428.73	-0.000
428.94	-0.000
429.15	-0.000
429.37	-0.000
429.58	-0.000
429.79	-0.000
430.01	-0.000
430.22	2.381
430.44	1.950
430.65	1.673
430.86	1.664
431.08	1.701
431.29	1.706
431.50	1.750
431.72	1.950
431.93	1.643
432.14	1.671
432.36	1.703
432.57	1.729
432.78	1.675
433.00	1.742
433.21	1.880
433.42	1.705
433.64	1.608
433.85	1.573
434.06	1.561
434.28	1.656
434.49	1.792
434.70	1.836
434.92	1.777
435.13	1.866
435.34	1.782
435.56	1.747
435.77	1.733
435.98	1.828
436.20	1.764
436.41	1.848
436.62	1.744
436.83	1.732
437.05	1.691
437.26	1.615
437.47	1.559
437.69	1.520
437.90	1.599
438.11	1.582
438.33	1.601
438.54	1.623
438.75	1.636
438.97	1.573
439.18	1.604
439.39	1.724
439.60	1.690
439.82	1.800
440.03	1.725
440.24	1.803
440.46	1.595
440.67	1.618
440.88	1.620
441.10	1.667
441.31	1.652
441.52	1.648
441.73	1.768
441.95	1.760
442.16	1.841
442.37	1.825
442.58	1.773
442.80	1.807
443.01	1.832
443.22	1.912
443.44	1.892
443.65	1.918
443.86	1.928
444.07	1.960
444.29	1.799
444.50	1.908
444.71	1.908
444.92	2.133
445.14	2.121
445.35	2.193
445.56	2.095
445.78	2.085
445.99	2.283
446.20	2.122
446.41	2.280
446.63	1.987
446.84	1.915
447.05	2.004
447.26	1.929
447.48	1.956
447.69	1.776
447.90	1.807
448.11	1.777
448.33	1.804
448.54	1.846
448.75	2.025
448.96	1.859
449.18	1.937
449.39	1.937
449.60	1.824
449.81	1.809
450.03	1.770
450.24	1.818
450.45	1.708
450.66	1.719
450.87	1.741
451.09	1.897
451.30	1.974
451.51	1.952
451.72	1.939
451.94	1.758
452.15	1.847
452.36	1.804
452.57	1.910
452.78	1.856
453.00	1.862
453.21	1.787
453.42	1.881
453.63	1.803
453.85	1.800
454.06	1.834
454.27	1.822
454.48	1.943
454.69	1.980
454.91	2.065
455.12	1.930
455.33	1.912
455.54	1.837
455.75	1.754
455.97	1.796
456.18	1.893
456.39	1.927
456.60	1.897
456.81	1.864
457.03	1.799
457.24	1.729
457.45	1.759
457.66	1.754
457.87	1.710
458.09	1.708
458.30	1.711
458.51	1.736
458.72	1.772
458.93	1.732
459.15	1.722
459.36	1.686
459.57	1.712
459.78	1.769
459.99	1.807
460.20	1.840
460.42	1.812
460.63	1.784
460.84	1.810
461.05	1.758
461.26	1.742
461.47	1.719
461.69	1.736
461.90	1.685
462.11	1.627
462.32	1.631
462.53	1.608
462.74	1.615
462.96	1.571
463.17	1.553
463.38	1.560
463.59	1.529
463.80	1.555
464.01	1.545
464.23	1.526
464.44	1.505
464.65	1.472
464.86	1.483
465.07	1.491
465.28	1.528
465.49	1.546
465.71	1.577
465.92	1.611
466.13	1.655
466.34	1.622
466.55	1.681
466.76	1.718
466.97	1.762
467.19	1.736
467.40	1.762
467.61	1.722
467.82	1.699
468.03	1.726
468.24	1.735
468.45	1.708
468.66	1.695
468.88	1.688
469.09	1.699
469.30	1.632
469.51	1.645
469.72	1.623
469.93	1.600
470.14	1.578
470.35	1.561
470.57	1.557
470.78	1.607
470.99	1.608
471.20	1.565
471.41	1.534
471.62	1.565
471.83	1.557
472.04	1.555
472.25	1.553
472.47	1.547
472.68	1.522
472.89	1.524
473.10	1.523
473.31	1.516
473.52	1.524
473.73	1.539
473.94	1.519
474.15	1.491
474.36	1.498
474.57	1.499
474.79	1.514
475.00	1.496
475.21	1.485
475.42	1.489
475.63	1.521
475.84	1.526
476.05	1.523
476.26	1.530
476.47	1.550
476.68	1.563
476.89	1.568
477.10	1.584
477.32	1.589
477.53	1.581
477.74	1.584
477.95	1.574
478.16	1.581
478.37	1.579
478.58	1.590
478.79	1.580
479.00	1.581
479.21	1.556
479.42	1.555
479.63	1.542
479.84	1.535
480.05	1.517
480.26	1.532
480.47	1.514
480.69	1.515
480.90	1.529
481.11	1.524
481.32	1.522
481.53	1.508
481.74	1.520
481.95	1.532
482.16	1.528
482.37	1.546
482.58	1.543
482.79	1.559
483.00	1.548
483.21	1.547
483.42	1.545
483.63	1.551
483.84	1.559
484.05	1.560
484.26	1.549
484.47	1.569
484.68	1.562
484.89	1.563
485.10	1.563
485.31	1.552
485.52	1.546
485.73	1.534
485.94	1.547
486.15	1.545
486.37	1.536
486.58	1.549
486.79	1.547
487.00	1.528
487.21	1.521
487.42	1.521
487.63	1.522
487.84	1.519
488.05	1.526
488.26	1.524
488.47	1.534
488.68	1.549
488.89	1.538
489.10	1.530
489.31	1.519
489.52	1.523
489.73	1.525
489.94	1.521
490.15	1.533
490.36	1.530
490.57	1.534
490.78	1.544
490.99	1.538
491.20	1.530
491.41	1.544
491.62	1.541
491.83	1.557
492.04	1.573
492.25	1.590
492.45	1.580
492.66	1.587
492.87	1.566
493.08	1.559
493.29	1.570
493.50	1.588
493.71	1.610
493.92	1.603
494.13	1.585
494.34	1.590
494.55	1.594
494.76	1.596
494.97	1.602
495.18	1.594
495.39	1.590
495.60	1.596
495.81	1.601
496.02	1.590
496.23	1.596
496.44	1.590
496.65	1.581
496.86	1.586
497.07	1.574
497.28	1.583
497.49	1.588
497.70	1.586
497.91	1.577
498.12	1.581
498.32	1.575
498.53	1.593
498.74	1.606
498.95	1.596
499.16	1.606
499.37	1.585
499.58	1.588
499.79	1.586
500.00	1.593
500.21	1.592
500.42	1.598
500.63	1.592
500.84	1.586
501.05	1.588
501.26	1.590
501.46	1.594
501.67	1.598
501.88	1.611
502.09	1.600
502.30	1.599
502.51	1.596
502.72	1.614
502.93	1.610
503.14	1.599
503.35	1.609
503.56	1.599
503.77	1.620
503.97	1.615
504.18	1.622
504.39	1.628
504.60	1.639
504.81	1.651
505.02	1.650
505.23	1.666
505.44	1.665
505.65	1.674
505.86	1.688
506.07	1.695
506.27	1.695
506.48	1.690
506.69	1.681
506.90	1.676
507.11	1.681
507.32	1.682
507.53	1.699
507.74	1.697
507.95	1.701
508.15	1.697
508.36	1.701
508.57	1.703
508.78	1.695
508.99	1.693
509.20	1.675
509.41	1.670
509.62	1.667
509.82	1.668
510.03	1.668
510.24	1.657
510.45	1.653
510.66	1.649
510.87	1.656
511.08	1.660
511.29	1.674
511.49	1.663
511.70	1.665
511.91	1.661
512.12	1.655
512.33	1.650
512.54	1.653
512.75	1.663
512.95	1.661
513.16	1.653
513.37	1.657
513.58	1.658
513.79	1.668
514.00	1.668
514.20	1.669
514.41	1.652
514.62	1.665
514.83	1.662
515.04	1.665
515.25	1.666
515.46	1.675
515.66	1.665
515.87	1.670
516.08	1.656
516.29	1.650
516.50	1.656
516.71	1.666
516.91	1.656
517.12	1.645
517.33	1.651
517.54	1.664
517.75	1.658
517.95	1.676
518.16	1.680
518.37	1.674
518.58	1.668
518.79	1.682
519.00	1.668
519.20	1.673
519.41	1.658
519.62	1.658
519.83	1.657
520.04	1.660
520.24	1.658
520.45	1.674
520.66	1.676
520.87	1.675
521.08	1.681
521.28	1.692
521.49	1.705
521.70	1.698
521.91	1.691
522.12	1.705
522.32	1.707
522.53	1.709
522.74	1.711
522.95	1.718
523.16	1.712
523.36	1.725
523.57	1.725
523.78	1.733
523.99	1.735
524.20	1.744
524.40	1.738
524.61	1.743
524.82	1.740
525.03	1.748
525.23	1.754
525.44	1.751
525.65	1.747
525.86	1.749
526.06	1.757
526.27	1.759
526.48	1.751
526.69	1.745
526.90	1.732
527.10	1.736
527.31	1.744
527.52	1.744
527.73	1.738
527.93	1.739
528.14	1.744
528.35	1.742
528.56	1.738
528.76	1.749
528.97	1.748
529.18	1.746
529.39	1.734
529.59	1.729
529.80	1.726
530.01	1.731
530.22	1.721
530.42	1.716
530.63	1.709
530.84	1.707
531.05	1.700
531.25	1.709
531.46	1.704
531.67	1.698
531.88	1.703
532.08	1.707
532.29	1.705
532.50	1.696
532.70	1.700
532.91	1.702
533.12	1.697
533.33	1.700
533.53	1.700
533.74	1.703
533.95	1.703
534.15	1.701
534.36	1.694
534.57	1.702
534.78	1.711
534.98	1.725
535.19	1.726
535.40	1.725
535.60	1.718
535.81	1.727
536.02	1.724
536.23	1.729
536.43	1.723
536.64	1.721
536.85	1.730
537.05	1.726
537.26	1.722
537.47	1.715
537.67	1.700
537.88	1.706
538.09	1.695
538.30	1.702
538.50	1.697
538.71	1.704
538.92	1.696
539.12	1.686
539.33	1.675
539.54	1.678
539.74	1.680
539.95	1.687
540.16	1.679
540.36	1.683
540.57	1.679
540.78	1.682
540.98	1.683
541.19	1.684
541.40	1.686
541.60	1.686
541.81	1.689
542.02	1.698
542.22	1.701
542.43	1.709
542.64	1.705
542.84	1.708
543.05	1.703
543.26	1.711
543.46	1.714
543.67	1.723
543.88	1.712
544.08	1.718
544.29	1.718
544.50	1.719
544.70	1.718
544.91	1.709
545.12	1.710
545.32	1.714
545.53	1.711
545.74	1.713
545.94	1.715
546.15	1.715
546.35	1.716
546.56	1.709
546.77	1.713
546.97	1.716
547.18	1.718
547.39	1.718
547.59	1.713
547.80	1.714
548.01	1.706
548.21	1.713
548.42	1.701
548.62	1.704
548.83	1.706
549.04	1.710
549.24	1.718
549.45	1.723
549.65	1.714
549.86	1.717
550.07	1.715
550.27	1.717
550.48	1.718
550.69	1.721
550.89	1.728
551.10	1.724
551.30	1.717
551.51	1.725
551.72	1.727
551.92	1.728
552.13	1.728
552.33	1.735
552.54	1.737
552.75	1.739
552.95	1.733
553.16	1.729
553.36	1.724
553.57	1.721
553.78	1.713
553.98	1.725
554.19	1.721
554.39	1.724
554.60	1.723
554.80	1.722
555.01	1.721
555.22	1.717
555.42	1.721
555.63	1.723
555.83	1.715
556.04	1.713
556.25	1.709
556.45	1.714
556.66	1.713
556.86	1.712
557.07	1.714
557.27	1.721
557.48	1.721
557.68	1.723
557.89	1.724
558.10	1.722
558.30	1.719
558.51	1.728
558.71	1.720
558.92	1.717
559.12	1.721
559.33	1.720
559.54	1.723
559.74	1.717
559.95	1.721
560.15	1.725
560.36	1.723
560.56	1.723
560.77	1.721
560.97	1.718
561.18	1.713
561.38	1.714
561.59	1.710
561.79	1.713
562.00	1.715
562.21	1.719
562.41	1.722
562.62	1.716
562.82	1.703
563.03	1.708
563.23	1.703
563.44	1.702
563.64	1.700
563.85	1.704
564.05	1.703
564.26	1.703
564.46	1.697
564.67	1.702
564.87	1.705
565.08	1.705
565.28	1.707
565.49	1.711
565.69	1.711
565.90	1.708
566.10	1.707
566.31	1.701
566.51	1.696
566.72	1.693
566.92	1.693
567.13	1.696
567.33	1.694
567.54	1.700
567.74	1.701
567.95	1.698
568.15	1.697
568.36	1.708
568.56	1.704
568.77	1.704
568.97	1.698
569.18	1.698
569.38	1.692
569.59	1.691
569.79	1.687
570.00	1.689
570.20	1.688
570.41	1.682
570.61	1.682
570.82	1.682
571.02	1.689
571.23	1.689
571.43	1.697
571.64	1.695
571.84	1.696
572.05	1.698
572.25	1.700
572.45	1.693
572.66	1.689
572.86	1.691
573.07	1.697
573.27	1.699
573.48	1.694
573.68	1.702
573.89	1.701
574.09	1.701
574.30	1.699
574.50	1.695
574.70	1.705
574.91	1.707
575.11	1.713
575.32	1.709
575.52	1.712
575.73	1.711
575.93	1.709
576.14	1.698
576.34	1.692
576.54	1.693
576.75	1.697
576.95	1.697
577.16	1.697
577.36	1.688
577.57	1.694
577.77	1.694
577.97	1.684
578.18	1.683
578.38	1.685
578.59	1.685
578.79	1.693
579.00	1.692
579.20	1.690
579.40	1.687
579.61	1.688
579.81	1.688
580.02	1.684
580.22	1.687
580.42	1.691
580.63	1.694
580.83	1.692
581.04	1.688
581.24	1.681
581.45	1.676
581.65	1.680
581.85	1.680
582.06	1.681
582.26	1.681
582.47	1.683
582.67	1.689
582.87	1.683
583.08	1.679
583.28	1.676
583.48	1.681
583.69	1.681
583.89	1.681
584.10	1.679
584.30	1.676
584.50	1.673
584.71	1.673
584.91	1.672
585.12	1.671
585.32	1.672
585.52	1.679
585.73	1.679
585.93	1.679
586.13	1.677
586.34	1.676
586.54	1.685
586.75	1.686
586.95	1.684
587.15	1.690
587.36	1.696
587.56	1.695
587.76	1.690
587.97	1.691
588.17	1.692
588.37	1.696
588.58	1.697
588.78	1.700
588.98	1.703
589.19	1.707
589.39	1.708
589.60	1.708
589.80	1.698
590.00	1.704
590.21	1.705
590.41	1.705
590.61	1.707
590.82	1.700
591.02	1.695
591.22	1.690
591.43	1.686
591.63	1.684
591.83	1.685
592.04	1.685
592.24	1.681
592.44	1.680
592.65	1.678
592.85	1.681
593.05	1.681
593.26	1.675
593.46	1.664
593.66	1.665
593.86	1.664
594.07	1.670
594.27	1.663
594.47	1.661
594.68	1.661
594.88	1.659
595.08	1.656
595.29	1.660
595.49	1.661
595.69	1.664
595.90	1.658
596.10	1.658
596.30	1.658
596.50	1.659
596.71	1.656
596.91	1.657
597.11	1.652
597.32	1.655
597.52	1.657
597.72	1.667
597.93	1.666
598.13	1.667
598.33	1.666
598.53	1.667
598.74	1.670
598.94	1.667
599.14	1.670
599.35	1.673
599.55	1.674
599.75	1.676
599.95	1.676
600.16	1.680
600.36	1.682
600.56	1.678
600.76	1.677
600.97	1.682
601.17	1.679
601.37	1.686
601.58	1.683
601.78	1.686
601.98	1.685
602.18	1.686
602.39	1.688
602.59	1.689
602.79	1.692
602.99	1.690
603.20	1.694
603.40	1.692
603.60	1.693
603.80	1.690
604.01	1.689
604.21	1.687
604.41	1.693
604.61	1.690
604.82	1.699
605.02	1.697
605.22	1.697
605.42	1.701
605.62	1.698
605.83	1.692
606.03	1.697
606.23	1.696
606.43	1.700
606.64	1.702
606.84	1.699
607.04	1.694
607.24	1.693
607.45	1.684
607.65	1.685
607.85	1.682
608.05	1.689
608.25	1.683
608.46	1.687
608.66	1.682
608.86	1.685
609.06	1.681
609.26	1.684
609.47	1.686
609.67	1.686
609.87	1.684
610.07	1.688
610.28	1.680
610.48	1.683
610.68	1.675
610.88	1.676
611.08	1.678
611.29	1.679
611.49	1.683
611.69	1.686
611.89	1.683
612.09	1.683
612.29	1.680
612.50	1.686
612.70	1.683
612.90	1.682
613.10	1.682
613.30	1.681
613.51	1.685
613.71	1.680
613.91	1.678
614.11	1.677
614.31	1.678
614.51	1.678
614.72	1.675
614.92	1.678
615.12	1.676
615.32	1.675
615.52	1.681
615.72	1.681
615.93	1.682
616.13	1.681
616.33	1.686
616.53	1.689
616.73	1.688
616.93	1.689
617.14	1.683
617.34	1.680
617.54	1.684
617.74	1.684
617.94	1.686
618.14	1.686
618.34	1.687
618.55	1.688
618.75	1.694
618.95	1.697
619.15	1.698
619.35	1.699
619.55	1.703
619.75	1.701
619.96	1.703
620.16	1.704
620.36	1.705
620.56	1.704
620.76	1.701
620.96	1.708
621.16	1.709
621.36	1.718
621.57	1.718
621.77	1.716
621.97	1.715
622.17	1.716
622.37	1.718
622.57	1.722
622.77	1.724
622.97	1.725
623.18	1.725
623.38	1.724
623.58	1.720
623.78	1.719
623.98	1.716
624.18	1.710
624.38	1.710
624.58	1.712
624.78	1.712
624.98	1.705
625.19	1.698
625.39	1.701
625.59	1.699
625.79	1.701
625.99	1.700
626.19	1.700
626.39	1.697
626.59	1.699
626.79	1.698
626.99	1.694
627.19	1.689
627.40	1.688
627.60	1.687
627.80	1.689
628.00	1.686
628.20	1.688
628.40	1.687
628.60	1.685
628.80	1.685
629.00	1.685
629.20	1.692
629.40	1.695
629.60	1.691
629.80	1.696
630.00	1.697
630.20	1.701
630.41	1.696
630.61	1.697
630.81	1.694
631.01	1.695
631.21	1.697
631.41	1.701
631.61	1.703
631.81	1.703
632.01	1.701
632.21	1.706
632.41	1.708
632.61	1.708
632.81	1.710
633.01	1.711
633.21	1.712
633.41	1.715
633.61	1.713
633.81	1.713
634.01	1.710
634.21	1.710
634.41	1.708
634.61	1.712
634.81	1.714
635.01	1.713
635.22	1.713
635.42	1.716
635.62	1.715
635.82	1.715
636.02	1.712
636.22	1.719
636.42	1.717
636.62	1.716
636.82	1.719
637.02	1.721
637.22	1.724
637.42	1.726
637.62	1.722
637.82	1.722
638.02	1.720
638.22	1.717
638.42	1.716
638.62	1.716
638.82	1.717
639.02	1.715
639.22	1.716
639.42	1.715
639.62	1.710
639.82	1.714
640.02	1.710
640.22	1.712
640.42	1.709
640.62	1.709
640.82	1.707
641.02	1.709
641.22	1.710
641.42	1.703
641.61	1.701
641.81	1.701
642.01	1.699
642.21	1.701
642.41	1.708
642.61	1.705
642.81	1.705
643.01	1.704
643.21	1.703
643.41	1.706
643.61	1.707
643.81	1.709
644.01	1.708
644.21	1.712
644.41	1.709
644.61	1.710
644.81	1.712
645.01	1.716
645.21	1.720
645.41	1.716
645.61	1.716
645.81	1.715
646.01	1.720
646.21	1.720
646.40	1.722
646.60	1.716
646.80	1.715
647.00	1.721
647.20	1.719
647.40	1.720
647.60	1.722
647.80	1.721
648.00	1.724
648.20	1.722
648.40	1.719
648.60	1.725
648.80	1.723
649.00	1.719
649.20	1.714
649.39	1.713
649.59	1.713
649.79	1.720
649.99	1.723
650.19	1.720
650.39	1.724
650.59	1.724
650.79	1.721
650.99	1.723
651.19	1.719
651.39	1.719
651.58	1.727
651.78	1.724
651.98	1.723
652.18	1.720
652.38	1.722
652.58	1.723
652.78	1.719
652.98	1.723
653.18	1.726
653.38	1.731
653.57	1.727
653.77	1.733
653.97	1.728
654.17	1.722
654.37	1.722
654.57	1.721
654.77	1.720
654.97	1.727
655.16	1.727
655.36	1.723
655.56	1.725
655.76	1.722
655.96	1.720
656.16	1.721
656.36	1.724
656.56	1.718
656.75	1.720
656.95	1.724
657.15	1.724
657.35	1.723
657.55	1.723
657.75	1.727
657.95	1.724
658.14	1.724
658.34	1.721
658.54	1.723
658.74	1.721
658.94	1.721
659.14	1.719
659.34	1.721
659.53	1.725
659.73	1.727
659.93	1.727
660.13	1.734
660.33	1.729
660.53	1.734
660.72	1.739
660.92	1.735
661.12	1.732
661.32	1.731
661.52	1.731
661.72	1.730
661.91	1.727
662.11	1.725
662.31	1.724
662.51	1.731
662.71	1.728
662.90	1.731
663.10	1.732
663.30	1.731
663.50	1.734
663.70	1.733
663.90	1.733
664.09	1.729
664.29	1.724
664.49	1.730
664.69	1.724
664.89	1.721
665.08	1.725
665.28	1.730
665.48	1.729
665.68	1.727
665.88	1.726
666.07	1.730
666.27	1.732
666.47	1.738
666.67	1.739
666.87	1.744
667.06	1.744
667.26	1.742
667.46	1.742
667.66	1.736
667.85	1.734
668.05	1.731
668.25	1.729
668.45	1.731
668.65	1.728
668.84	1.729
669.04	1.736
669.24	1.737
669.44	1.734
669.63	1.732
669.83	1.739
670.03	1.745
670.23	1.741
670.42	1.740
670.62	1.738
670.82	1.731
671.02	1.728
671.22	1.728
671.41	1.729
671.61	1.730
671.81	1.735
672.01	1.740
672.20	1.740
672.40	1.746
672.60	1.747
672.80	1.746
672.99	1.746
673.19	1.741
673.39	1.739
673.58	1.739
673.78	1.741
673.98	1.737
674.18	1.734
674.37	1.736
674.57	1.738
674.77	1.739
674.97	1.747
675.16	1.748
675.36	1.748
675.56	1.750
675.75	1.751
675.95	1.750
676.15	1.747
676.35	1.748
676.54	1.749
676.74	1.746
676.94	1.751
677.13	1.752
677.33	1.749
677.53	1.751
677.73	1.750
677.92	1.751
678.12	1.750
678.32	1.749
678.51	1.747
678.71	1.748
678.91	1.748
679.11	1.750
679.30	1.749
679.50	1.751
679.70	1.753
679.89	1.752
680.09	1.752
680.29	1.753
680.48	1.757
680.68	1.752
680.88	1.752
681.07	1.748
681.27	1.747
681.47	1.746
681.66	1.749
681.86	1.749
682.06	1.748
682.25	1.748
682.45	1.746
682.65	1.746
682.84	1.741
683.04	1.735
683.24	1.731
683.43	1.731
683.63	1.730
683.83	1.729
684.02	1.729
684.22	1.733
684.42	1.730
684.61	1.723
684.81	1.727
685.01	1.729
685.20	1.730
685.40	1.732
685.60	1.737
685.79	1.731
685.99	1.732
686.19	1.735
686.38	1.735
686.58	1.736
686.77	1.739
686.97	1.747
687.17	1.746
687.36	1.750
687.56	1.750
687.76	1.748
687.95	1.748
688.15	1.750
688.34	1.748
688.54	1.750
688.74	1.755
688.93	1.755
689.13	1.755
689.33	1.760
689.52	1.761
689.72	1.756
689.91	1.764
690.11	1.763
690.31	1.764
690.50	1.767
690.70	1.765
690.89	1.768
691.09	1.766
691.29	1.770
691.48	1.767
691.68	1.767
691.87	1.771
692.07	1.773
692.27	1.775
692.46	1.772
692.66	1.770
692.85	1.769
693.05	1.772
693.25	1.772
693.44	1.768
693.64	1.767
693.83	1.771
694.03	1.772
694.22	1.771
694.42	1.771
694.62	1.770
694.81	1.776
695.01	1.773
695.20	1.774
695.40	1.778
695.59	1.774
695.79	1.778
695.99	1.779
696.18	1.780
696.38	1.774
696.57	1.776
696.77	1.779
696.96	1.779
697.16	1.775
697.36	1.774
697.55	1.775
697.75	1.773
697.94	1.771
698.14	1.770
698.33	1.772
698.53	1.768
698.72	1.767
698.92	1.765
699.11	1.765
699.31	1.765
699.51	1.758
699.70	1.761
699.90	1.761
700.09	1.758
700.29	1.756
700.48	1.759
700.68	1.756
700.87	1.755
701.07	1.756
701.26	1.758
701.46	1.761
701.65	1.760
701.85	1.764
702.04	1.763
702.24	1.759
702.43	1.764
702.63	1.768
702.82	1.768
703.02	1.768
703.21	1.770
703.41	1.773
703.60	1.776
703.80	1.778
703.99	1.781
704.19	1.782
704.38	1.783
704.58	1.781
704.77	1.786
704.97	1.786
705.16	1.787
705.36	1.784
705.55	1.783
705.75	1.782
705.94	1.784
706.14	1.787
706.33	1.789
706.53	1.786
706.72	1.783
706.92	1.786
707.11	1.787
707.31	1.784
707.50	1.777
707.70	1.776
707.89	1.775
708.09	1.771
708.28	1.774
708.48	1.774
708.67	1.776
708.86	1.775
709.06	1.776
709.25	1.772
709.45	1.774
709.64	1.771
709.84	1.772
710.03	1.769
710.23	1.768
710.42	1.769
710.62	1.773
710.81	1.774
711.00	1.772
711.20	1.770
711.39	1.771
711.59	1.774
711.78	1.773
711.98	1.771
712.17	1.768
712.37	1.770
712.56	1.769
712.75	1.768
712.95	1.770
713.14	1.770
713.34	1.772
713.53	1.773
713.73	1.777
713.92	1.781
714.11	1.783
714.31	1.789
714.50	1.787
714.70	1.781
714.89	1.783
715.08	1.785
715.28	1.789
715.47	1.789
715.67	1.793
715.86	1.796
716.06	1.802
716.25	1.804
716.44	1.801
716.64	1.803
716.83	1.806
717.03	1.807
717.22	1.808
717.41	1.810
717.61	1.807
717.80	1.808
717.99	1.807
718.19	1.802
718.38	1.794
718.58	1.791
718.77	1.791
718.96	1.790
719.16	1.792
719.35	1.789
719.55	1.790
719.74	1.788
719.93	1.785
720.13	1.785
720.32	1.789
720.51	1.791
720.71	1.789
720.90	1.787
721.10	1.787
721.29	1.786
721.48	1.787
721.68	1.788
721.87	1.790
722.06	1.787
722.26	1.790
722.45	1.797
722.64	1.802
722.84	1.804
723.03	1.807
723.22	1.807
723.42	1.811
723.61	1.811
723.80	1.811
724.00	1.817
724.19	1.812
724.38	1.808
724.58	1.807
724.77	1.813
724.96	1.810
725.16	1.810
725.35	1.812
725.54	1.813
725.74	1.815
725.93	1.816
726.12	1.819
726.32	1.823
726.51	1.819
726.70	1.820
726.90	1.816
727.09	1.813
727.28	1.816
727.48	1.816
727.67	1.817
727.86	1.822
728.06	1.817
728.25	1.824
728.44	1.822
728.64	1.820
728.83	1.815
729.02	1.819
729.21	1.819
729.41	1.819
729.60	1.813
729.79	1.814
729.99	1.809
730.18	1.808
730.37	1.801
730.56	1.801
730.76	1.800
730.95	1.799
731.14	1.799
731.34	1.795
731.53	1.788
731.72	1.788
731.91	1.780
732.11	1.782
732.30	1.784
732.49	1.785
732.69	1.787
732.88	1.792
733.07	1.787
733.26	1.790
733.46	1.792
733.65	1.796
733.84	1.791
734.03	1.789
734.23	1.790
734.42	1.794
734.61	1.796
734.80	1.794
735.00	1.796
735.19	1.793
735.38	1.793
735.57	1.799
735.77	1.800
735.96	1.805
736.15	1.804
736.34	1.799
736.54	1.796
736.73	1.794
736.92	1.788
737.11	1.795
737.31	1.792
737.50	1.790
737.69	1.789
737.88	1.794
738.07	1.798
738.27	1.803
738.46	1.807
738.65	1.808
738.84	1.810
739.04	1.813
739.23	1.817
739.42	1.815
739.61	1.813
739.80	1.810
740.00	1.811
740.19	1.810
740.38	1.810
740.57	1.814
740.76	1.813
740.96	1.817
741.15	1.814
741.34	1.817
741.53	1.818
741.72	1.818
741.92	1.818
742.11	1.819
742.30	1.817
742.49	1.817
742.68	1.816
742.88	1.820
743.07	1.816
743.26	1.816
743.45	1.818
743.64	1.819
743.84	1.824
744.03	1.821
744.22	1.823
744.41	1.825
744.60	1.820
744.79	1.825
744.99	1.821
745.18	1.819
745.37	1.815
745.56	1.817
745.75	1.819
745.94	1.819
746.14	1.818
746.33	1.817
746.52	1.813
746.71	1.815
746.90	1.809
747.09	1.808
747.28	1.809
747.48	1.808
747.67	1.811
747.86	1.804
748.05	1.803
748.24	1.799
748.43	1.794
748.62	1.802
748.82	1.801
749.01	1.804
749.20	1.807
749.39	1.808
749.58	1.803
749.77	1.805
749.96	1.801
750.16	1.804
750.35	1.800
750.54	1.798
750.73	1.795
750.92	1.798
751.11	1.803
751.30	1.803
751.49	1.803
751.68	1.799
751.88	1.804
752.07	1.804
752.26	1.808
752.45	1.812
752.64	1.804
752.83	1.807
753.02	1.805
753.21	1.804
753.40	1.798
753.60	1.800
753.79	1.798
753.98	1.798
754.17	1.798
754.36	1.800
754.55	1.803
754.74	1.803
754.93	1.802
755.12	1.803
755.31	1.801
755.50	1.804
755.70	1.803
755.89	1.805
756.08	1.803
756.27	1.801
756.46	1.801
756.65	1.806
756.84	1.805
757.03	1.804
757.22	1.803
757.41	1.813
757.60	1.815
757.79	1.815
757.98	1.814
758.17	1.815
758.36	1.815
758.56	1.813
758.75	1.816
758.94	1.815
759.13	1.813
759.32	1.815
759.51	1.810
759.70	1.808
759.89	1.811
760.08	1.816
760.27	1.823
760.46	1.826
760.65	1.822
760.84	1.824
761.03	1.822
761.22	1.822
761.41	1.816
761.60	1.819
761.79	1.818
761.98	1.820
762.17	1.820
762.36	1.821
762.55	1.823
762.74	1.822
762.93	1.821
763.12	1.821
763.31	1.818
763.50	1.822
763.69	1.826
763.88	1.821
764.07	1.821
764.26	1.819
764.45	1.814
764.64	1.818
764.83	1.817
765.02	1.821
765.21	1.826
765.40	1.826
765.59	1.824
765.78	1.826
765.97	1.822
766.16	1.820
766.35	1.818
766.54	1.817
766.73	1.819
766.92	1.825
767.11	1.830
767.30	1.832
767.49	1.835
767.68	1.836
767.87	1.840
768.06	1.836
768.25	1.832
768.44	1.834
768.63	1.837
768.82	1.836
769.01	1.833
769.20	1.828
769.39	1.830
769.58	1.829
769.77	1.830
769.96	1.839
770.15	1.840
770.34	1.843
770.53	1.849
770.72	1.847
770.91	1.843
771.10	1.837
771.29	1.836
771.47	1.832
771.66	1.831
771.85	1.830
772.04	1.839
772.23	1.839
772.42	1.843
772.61	1.839
772.80	1.840
772.99	1.838
773.18	1.839
773.37	1.839
773.56	1.841
773.75	1.842
773.94	1.840
774.13	1.838
774.31	1.836
774.50	1.830
774.69	1.830
774.88	1.833
775.07	1.834
775.26	1.835
775.45	1.833
775.64	1.834
775.83	1.839
776.02	1.840
776.21	1.841
776.40	1.839
776.58	1.839
776.77	1.840
776.96	1.847
777.15	1.845
777.34	1.847
777.53	1.847
777.72	1.842
777.91	1.841
778.10	1.840
778.28	1.840
778.47	1.843
778.66	1.843
778.85	1.841
779.04	1.841
779.23	1.841
779.42	1.847
779.61	1.846
779.79	1.840
779.98	1.832
780.17	1.831
780.36	1.833
780.55	1.835
780.74	1.833
780.93	1.833
781.12	1.837
781.30	1.835
781.49	1.830
781.68	1.830
781.87	1.833
782.06	1.832
782.25	1.835
782.44	1.834
782.62	1.836
782.81	1.838
783.00	1.838
783.19	1.839
783.38	1.836
783.57	1.837
783.75	1.836
783.94	1.837
784.13	1.834
784.32	1.829
784.51	1.826
784.70	1.823
784.88	1.823
785.07	1.817
785.26	1.814
785.45	1.815
785.64	1.818
785.83	1.814
786.01	1.817
786.20	1.815
786.39	1.814
786.58	1.812
786.77	1.812
786.95	1.814
787.14	1.810
787.33	1.809
787.52	1.802
787.71	1.799
787.90	1.799
788.08	1.802
788.27	1.811
788.46	1.808
788.65	1.811
788.84	1.810
789.02	1.810
789.21	1.809
789.40	1.815
789.59	1.814
789.77	1.815
789.96	1.810
790.15	1.805
790.34	1.803
790.53	1.805
790.71	1.803
790.90	1.807
791.09	1.809
791.28	1.808
791.46	1.818
791.65	1.823
791.84	1.827
792.03	1.824
792.22	1.820
792.40	1.824
792.59	1.825
792.78	1.826
792.97	1.835
793.15	1.840
793.34	1.836
793.53	1.838
793.72	1.836
793.90	1.840
794.09	1.850
794.28	1.853
794.47	1.852
794.65	1.846
794.84	1.847
795.03	1.848
795.22	1.850
795.40	1.845
795.59	1.844
795.78	1.846
795.97	1.847
796.15	1.841
796.34	1.845
796.53	1.846
796.71	1.846
796.90	1.841
797.09	1.837
797.28	1.837
797.46	1.833
797.65	1.835
797.84	1.842
798.02	1.841
798.21	1.835
798.40	1.838
798.59	1.842
798.77	1.838
798.96	1.840
799.15	1.834
799.33	1.836
799.52	1.838
799.71	1.834
799.90	1.839
800.08	1.842
800.27	1.845
800.46	1.847
800.64	1.846
800.83	1.849
801.02	1.851
801.20	1.847
801.39	1.848
801.58	1.850
801.76	1.848
801.95	1.847
802.14	1.850
802.32	1.847
802.51	1.849
802.70	1.855
802.88	1.850
803.07	1.853
803.26	1.854
803.44	1.850
803.63	1.856
803.82	1.853
804.00	1.853
804.19	1.851
804.38	1.848
804.56	1.850
804.75	1.849
804.94	1.849
805.12	1.850
805.31	1.855
805.50	1.852
805.68	1.849
805.87	1.845
806.06	1.846
806.24	1.845
806.43	1.844
806.62	1.841
806.80	1.844
806.99	1.850
807.17	1.847
807.36	1.846
807.55	1.842
807.73	1.842
807.92	1.842
808.11	1.842
808.29	1.841
808.48	1.841
808.66	1.839
808.85	1.839
809.04	1.843
809.22	1.841
809.41	1.842
809.59	1.842
809.78	1.843
809.97	1.845
810.15	1.850
810.34	1.848
810.53	1.849
810.71	1.847
810.90	1.844
811.08	1.849
811.27	1.850
811.45	1.845
811.64	1.841
811.83	1.840
812.01	1.838
812.20	1.836
812.38	1.836
812.57	1.840
812.76	1.842
812.94	1.841
813.13	1.842
813.31	1.842
813.50	1.843
813.68	1.848
813.87	1.849
814.06	1.848
814.24	1.846
814.43	1.843
814.61	1.846
814.80	1.847
814.98	1.844
815.17	1.846
815.36	1.849
815.54	1.850
815.73	1.850
815.91	1.849
816.10	1.850
816.28	1.849
816.47	1.847
816.65	1.846
816.84	1.849
817.03	1.844
817.21	1.843
817.40	1.842
817.58	1.841
817.77	1.837
817.95	1.833
818.14	1.835
818.32	1.838
818.51	1.835
818.69	1.837
818.88	1.842
819.06	1.840
819.25	1.839
819.43	1.843
819.62	1.841
819.80	1.844
819.99	1.845
820.18	1.847
820.36	1.851
820.55	1.847
820.73	1.842
820.92	1.848
821.10	1.851
821.29	1.851
821.47	1.848
821.66	1.852
821.84	1.855
822.03	1.853
822.21	1.848
822.40	1.852
822.58	1.846
822.77	1.837
822.95	1.838
823.14	1.841
823.32	1.840
823.50	1.842
823.69	1.838
823.87	1.836
824.06	1.830
824.24	1.828
824.43	1.834
824.61	1.834
824.80	1.832
824.98	1.827
825.17	1.833
825.35	1.836
825.54	1.834
825.72	1.836
825.91	1.838
826.09	1.839
826.28	1.837
826.46	1.839
826.64	1.844
826.83	1.848
827.01	1.846
827.20	1.850
827.38	1.851
827.57	1.851
827.75	1.856
827.94	1.856
828.12	1.858
828.31	1.855
828.49	1.860
828.67	1.857
828.86	1.859
829.04	1.856
829.23	1.851
829.41	1.851
829.60	1.843
829.78	1.843
829.96	1.844
830.15	1.845
830.33	1.847
830.52	1.847
830.70	1.845
830.88	1.846
831.07	1.849
831.25	1.851
831.44	1.853
831.62	1.851
831.81	1.855
831.99	1.852
832.17	1.850
832.36	1.844
832.54	1.843
832.73	1.844
832.91	1.841
833.09	1.844
833.28	1.844
833.46	1.852
833.65	1.853
833.83	1.853
834.01	1.853
834.20	1.853
834.38	1.854
834.56	1.851
834.75	1.849
834.93	1.849
835.12	1.847
835.30	1.848
835.48	1.850
835.67	1.845
835.85	1.848
836.03	1.852
836.22	1.860
836.40	1.860
836.59	1.859
836.77	1.859
836.95	1.860
837.14	1.863
837.32	1.867
837.50	1.872
837.69	1.874
837.87	1.872
838.05	1.876
838.24	1.871
838.42	1.875
838.60	1.877
838.79	1.873
838.97	1.874
839.15	1.876
839.34	1.874
839.52	1.878
839.70	1.875
839.89	1.872
840.07	1.869
840.25	1.871
840.44	1.876
840.62	1.878
840.80	1.875
840.99	1.872
841.17	1.868
841.35	1.864
841.54	1.863
841.72	1.863
841.90	1.852
842.09	1.854
842.27	1.851
842.45	1.849
842.64	1.849
842.82	1.848
843.00	1.843
843.19	1.844
843.37	1.850
843.55	1.852
843.73	1.848
843.92	1.845
844.10	1.844
844.28	1.845
844.47	1.843
844.65	1.845
844.83	1.845
845.01	1.841
845.20	1.836
845.38	1.840
845.56	1.841
845.75	1.847
845.93	1.850
846.11	1.855
846.29	1.855
846.48	1.859
846.66	1.863
846.84	1.867
847.02	1.865
847.21	1.857
847.39	1.852
847.57	1.857
847.76	1.858
847.94	1.860
848.12	1.853
848.30	1.858
848.49	1.857
848.67	1.856
848.85	1.859
849.03	1.863
849.22	1.856
849.40	1.855
849.58	1.855
849.76	1.853
849.95	1.848
850.13	1.849
850.31	1.846
850.49	1.845
850.67	1.844
850.86	1.844
851.04	1.847
851.22	1.850
851.40	1.850
851.59	1.851
851.77	1.852
851.95	1.854
852.13	1.851
852.31	1.851
852.50	1.853
852.68	1.854
852.86	1.853
853.04	1.856
853.23	1.855
853.41	1.855
853.59	1.855
853.77	1.859
853.95	1.864
854.14	1.862
854.32	1.859
854.50	1.861
854.68	1.860
854.86	1.860
855.04	1.863
855.23	1.858
855.41	1.859
855.59	1.857
855.77	1.856
855.95	1.860
856.14	1.865
856.32	1.865
856.50	1.867
856.68	1.872
856.86	1.874
857.04	1.877
857.23	1.879
857.41	1.876
857.59	1.871
857.77	1.861
857.95	1.862
858.13	1.860
858.32	1.860
858.50	1.864
858.68	1.863
858.86	1.865
859.04	1.872
859.22	1.876
859.41	1.875
859.59	1.878
859.77	1.881
859.95	1.874
860.13	1.870
860.31	1.867
860.49	1.866
860.68	1.865
860.86	1.864
861.04	1.865
861.22	1.864
861.40	1.869
861.58	1.871
861.76	1.874
861.94	1.874
862.13	1.874
862.31	1.874
862.49	1.873
862.67	1.873
862.85	1.871
863.03	1.864
863.21	1.864
863.39	1.864
863.57	1.859
863.76	1.860
863.94	1.863
864.12	1.865
864.30	1.864
864.48	1.860
864.66	1.856
864.84	1.861
865.02	1.864
865.20	1.863
865.38	1.865
865.57	1.865
865.75	1.869
865.93	1.867
866.11	1.861
866.29	1.862
866.47	1.857
866.65	1.855
866.83	1.857
867.01	1.859
867.19	1.851
867.37	1.851
867.55	1.853
867.73	1.854
867.92	1.857
868.10	1.856
868.28	1.861
868.46	1.866
868.64	1.854
868.82	1.854
869.00	1.849
869.18	1.847
869.36	1.847
869.54	1.846
869.72	1.848
869.90	1.855
870.08	1.854
870.26	1.857
870.44	1.858
870.62	1.856
870.80	1.858
870.98	1.860
871.16	1.861
871.34	1.858
871.53	1.859
871.71	1.855
871.89	1.853
872.07	1.853
872.25	1.854
872.43	1.860
872.61	1.863
872.79	1.862
872.97	1.863
873.15	1.863
873.33	1.863
873.51	1.859
873.69	1.859
873.87	1.862
874.05	1.861
874.23	1.859
874.41	1.861
874.59	1.859
874.77	1.864
874.95	1.862
875.13	1.863
875.31	1.859
875.49	1.860
875.67	1.860
875.85	1.859
876.03	1.854
876.21	1.853
876.39	1.854
876.57	1.858
876.75	1.859
876.93	1.859
877.11	1.864
877.29	1.869
877.47	1.865
877.65	1.857
877.82	1.859
878.00	1.860
878.18	1.858
878.36	1.855
878.54	1.858
878.72	1.857
878.90	1.857
879.08	1.859
879.26	1.861
879.44	1.861
879.62	1.859
879.80	1.862
879.98	1.866
880.16	1.864
880.34	1.864
880.52	1.865
880.70	1.866
880.88	1.857
881.06	1.849
881.24	1.853
881.42	1.858
881.59	1.854
881.77	1.856
881.95	1.860
882.13	1.860
882.31	1.862
882.49	1.864
882.67	1.863
882.85	1.859
883.03	1.857
883.21	1.864
883.39	1.861
883.57	1.861
883.75	1.858
883.92	1.857
884.10	1.859
884.28	1.857
884.46	1.852
884.64	1.854
884.82	1.855
885.00	1.853
885.18	1.858
885.36	1.859
885.54	1.860
885.71	1.860
885.89	1.863
886.07	1.858
886.25	1.853
886.43	1.860
886.61	1.865
886.79	1.865
886.97	1.858
887.15	1.861
887.32	1.859
887.50	1.862
887.68	1.864
887.86	1.861
888.04	1.865
888.22	1.865
888.40	1.869
888.57	1.872
888.75	1.873
888.93	1.869
889.11	1.871
889.29	1.869
889.47	1.868
889.65	1.867
889.82	1.866
890.00	1.870
890.18	1.864
890.36	1.865
890.54	1.865
890.72	1.872
890.90	1.873
891.07	1.875
891.25	1.877
891.43	1.878
891.61	1.880
891.79	1.877
891.97	1.878
892.14	1.878
892.32	1.882
892.50	1.879
892.68	1.877
892.86	1.875
893.03	1.874
893.21	1.874
893.39	1.875
893.57	1.874
893.75	1.874
893.93	1.880
894.10	1.878
894.28	1.876
894.46	1.873
894.64	1.873
894.82	1.868
894.99	1.862
895.17	1.858
895.35	1.860
895.53	1.861
895.71	1.865
895.88	1.861
896.06	1.862
896.24	1.862
896.42	1.865
896.59	1.866
896.77	1.871
896.95	1.873
897.13	1.874
897.31	1.880
897.48	1.881
897.66	1.876
897.84	1.880
898.02	1.882
898.19	1.884
898.37	1.884
898.55	1.885
898.73	1.888
898.91	1.887
899.08	1.886
899.26	1.889
899.44	1.888
899.62	1.892
899.79	1.893
899.97	1.892
900.15	1.890
900.33	1.887
900.50	1.886
900.68	1.882
900.86	1.881
901.04	1.880
901.21	1.879
901.39	1.884
901.57	1.882
901.74	1.881
901.92	1.879
902.10	1.879
902.28	1.881
902.45	1.880
902.63	1.880
902.81	1.878
902.99	1.878
903.16	1.879
903.34	1.877
903.52	1.876
903.69	1.876
903.87	1.873
904.05	1.875
904.22	1.874
904.40	1.876
904.58	1.880
904.76	1.880
904.93	1.878
905.11	1.875
905.29	1.872
905.46	1.874
905.64	1.874
905.82	1.869
905.99	1.870
906.17	1.874
906.35	1.871
906.53	1.870
906.70	1.867
906.88	1.866
907.06	1.866
907.23	1.866
907.41	1.868
907.59	1.871
907.76	1.871
907.94	1.866
908.12	1.865
908.29	1.860
908.47	1.859
908.65	1.861
908.82	1.862
909.00	1.861
909.18	1.861
909.35	1.861
909.53	1.870
909.71	1.870
909.88	1.875
910.06	1.879
910.23	1.880
910.41	1.881
910.59	1.878
910.76	1.882
910.94	1.885
911.12	1.884
911.29	1.887
911.47	1.889
911.65	1.897
911.82	1.898
912.00	1.899
912.17	1.905
912.35	1.906
912.53	1.907
912.70	1.906
912.88	1.906
913.06	1.908
913.23	1.902
913.41	1.900
913.58	1.890
913.76	1.889
913.94	1.890
914.11	1.892
914.29	1.893
914.46	1.893
914.64	1.887
914.82	1.888
914.99	1.886
915.17	1.884
915.34	1.883
915.52	1.885
915.70	1.887
915.87	1.882
916.05	1.877
916.22	1.876
916.40	1.883
916.57	1.878
916.75	1.878
916.93	1.877
917.10	1.875
917.28	1.876
917.45	1.877
917.63	1.877
917.80	1.874
917.98	1.874
918.16	1.870
918.33	1.871
918.51	1.875
918.68	1.876
918.86	1.873
919.03	1.876
919.21	1.876
919.39	1.876
919.56	1.876
919.74	1.878
919.91	1.876
920.09	1.871
920.26	1.873
920.44	1.874
920.61	1.874
920.79	1.878
920.96	1.876
921.14	1.878
921.31	1.875
921.49	1.878
921.67	1.877
921.84	1.876
922.02	1.877
922.19	1.870
922.37	1.871
922.54	1.869
922.72	1.868
922.89	1.863
923.07	1.863
923.24	1.860
923.42	1.863
923.59	1.865
923.77	1.868
923.94	1.869
924.12	1.867
924.29	1.869
924.47	1.865
924.64	1.866
924.82	1.866
924.99	1.872
925.17	1.876
925.34	1.877
925.52	1.881
925.69	1.879
925.87	1.880
926.04	1.885
926.22	1.890
926.39	1.888
926.57	1.887
926.74	1.891
926.91	1.890
927.09	1.889
927.26	1.890
927.44	1.887
927.61	1.891
927.79	1.888
927.96	1.887
928.14	1.890
928.31	1.893
928.49	1.893
928.66	1.891
928.84	1.883
929.01	1.885
929.18	1.884
929.36	1.883
929.53	1.886
929.71	1.878
929.88	1.879
930.06	1.881
930.23	1.884
930.41	1.879
930.58	1.885
930.75	1.882
930.93	1.879
931.10	1.877
931.28	1.873
931.45	1.877
931.63	1.875
931.80	1.878
931.97	1.876
932.15	1.880
932.32	1.885
932.50	1.887
932.67	1.885
932.84	1.883
933.02	1.884
933.19	1.882
933.37	1.887
933.54	1.880
933.71	1.872
933.89	1.874
934.06	1.866
934.24	1.866
934.41	1.862
934.58	1.863
934.76	1.865
934.93	1.866
935.11	1.861
935.28	1.870
935.45	1.868
935.63	1.869
935.80	1.867
935.98	1.862
936.15	1.867
936.32	1.865
936.50	1.864
936.67	1.870
936.84	1.873
937.02	1.863
937.19	1.875
937.36	1.880
937.54	1.873
937.71	1.882
937.89	1.881
938.06	1.890
938.23	1.895
938.41	1.892
938.58	1.894
938.75	1.898
938.93	1.895
939.10	1.896
939.27	1.900
939.45	1.898
939.62	1.900
939.79	1.899
939.97	1.893
940.14	1.899
940.31	1.893
940.49	1.893
940.66	1.899
940.83	1.890
941.01	1.894
941.18	1.899
941.35	1.901
941.53	1.895
941.70	1.896
941.87	1.891
942.05	1.898
942.22	1.896
942.39	1.892
942.57	1.891
942.74	1.888
942.91	1.877
943.08	1.874
943.26	1.874
943.43	1.868
943.60	1.875
943.78	1.870
943.95	1.879
944.12	1.876
944.29	1.879
944.47	1.883
944.64	1.876
944.81	1.883
944.99	1.880
945.16	1.882
945.33	1.876
945.50	1.874
945.68	1.867
945.85	1.872
946.02	1.875
946.20	1.870
946.37	1.869
946.54	1.874
946.71	1.875
946.89	1.872
947.06	1.878
947.23	1.879
947.40	1.883
947.58	1.875
947.75	1.881
947.92	1.875
948.09	1.863
948.27	1.869
948.44	1.860
948.61	1.856
948.78	1.859
948.96	1.862
949.13	1.863
949.30	1.870
949.47	1.869
949.65	1.867
949.82	1.868
949.99	1.869
950.16	1.868
950.33	1.876
950.51	1.875
950.68	1.869
950.85	1.876
951.02	1.872
951.20	1.874
951.37	1.871
951.54	1.879
951.71	1.888
951.88	1.893
952.06	1.896
952.23	1.903
952.40	1.898
952.57	1.899
952.74	1.906
952.92	1.902
953.09	1.897
953.26	1.904
953.43	1.906
953.60	1.910
953.77	1.913
953.95	1.907
954.12	1.916
954.29	1.921
954.46	1.914
954.63	1.919
954.81	1.931
954.98	1.929
955.15	1.932
955.32	1.938
955.49	1.927
955.66	1.924
955.84	1.937
956.01	1.946
956.18	1.939
956.35	1.931
956.52	1.928
956.69	1.932
956.87	1.924
957.04	1.922
957.21	1.918
957.38	1.919
957.55	1.911
957.72	1.895
957.89	1.896
958.07	1.886
958.24	1.874
958.41	1.860
958.58	1.855
958.75	1.841
958.92	1.841
959.09	1.852
959.26	1.851
959.44	1.844
959.61	1.834
959.78	1.835
959.95	1.838
960.12	1.840
960.29	1.844
960.46	1.850
960.63	1.847
960.81	1.849
960.98	1.855
961.15	1.860
961.32	1.870
961.49	1.869
961.66	1.886
961.83	1.891
962.00	1.882
962.17	1.886
962.34	1.892
962.52	1.886
962.69	1.875
962.86	1.877
963.03	1.879
963.20	1.880
963.37	1.881
963.54	1.872
963.71	1.870
963.88	1.865
964.05	1.865
964.22	1.870
964.39	1.866
964.56	1.857
964.74	1.861
964.91	1.868
965.08	1.869
965.25	1.854
965.42	1.856
965.59	1.870
965.76	1.868
965.93	1.866
966.10	1.872
966.27	1.873
966.44	1.863
966.61	1.852
966.78	1.862
966.95	1.871
967.12	1.884
967.29	1.900
967.46	1.903
967.63	1.898
967.80	1.893
967.97	1.902
968.14	1.911
968.32	1.912
968.49	1.903
968.66	1.900
968.83	1.910
969.00	1.898
969.17	1.922
969.34	1.919
969.51	1.929
969.68	1.915
969.85	1.913
970.02	1.925
970.19	1.933
970.36	1.927
970.53	1.923
970.70	1.907
970.87	1.900
971.04	1.895
971.21	1.897
971.38	1.915
971.55	1.910
971.72	1.910
971.89	1.892
972.06	1.898
972.23	1.901
972.40	1.904
972.57	1.910
972.74	1.895
972.91	1.886
973.07	1.876
973.24	1.885
973.41	1.894
973.58	1.901
973.75	1.896
973.92	1.905
974.09	1.911
974.26	1.925
974.43	1.919
974.60	1.927
974.77	1.933
974.94	1.917
975.11	1.929
975.28	1.922
975.45	1.938
975.62	1.944
975.79	1.946
975.96	1.938
976.13	1.946
976.30	1.940
976.47	1.967
976.64	1.971
976.80	1.975
976.97	1.972
977.14	1.981
977.31	1.977
977.48	1.968
977.65	1.964
977.82	1.977
977.99	1.970
978.16	1.981
978.33	1.973
978.50	1.989
978.67	1.969
978.83	1.968
979.00	1.975
979.17	1.949
979.34	1.954
979.51	1.949
979.68	1.948
979.85	1.955
980.02	1.945
980.19	1.948
980.36	1.956
980.52	1.965
980.69	1.954
980.86	1.971
981.03	1.978
981.20	1.975
981.37	1.972
981.54	1.983
981.71	1.958
981.88	1.968
982.04	1.958
982.21	1.951
982.38	1.939
982.55	1.924
982.72	1.949
982.89	1.958
983.06	1.971
983.22	1.969
983.39	1.953
983.56	1.969
983.73	1.950
983.90	1.938
984.07	1.926
984.24	1.934
984.40	1.927
984.57	1.911
984.74	1.909
984.91	1.900
985.08	1.885
985.25	1.908
985.41	1.893
985.58	1.892
985.75	1.905
985.92	1.921
986.09	1.949
986.26	1.952
986.42	1.943
986.59	1.940
986.76	1.940
986.93	1.956
987.10	1.941
987.27	1.950
987.43	1.960
987.60	1.955
987.77	1.945
987.94	1.942
988.11	1.937
988.27	1.926
988.44	1.922
988.61	1.937
988.78	1.925
988.95	1.924
989.11	1.915
989.28	1.916
989.45	1.941
989.62	1.933
989.79	1.914
989.95	1.914
990.12	1.922
990.29	1.932
990.46	1.904
990.62	1.906
990.79	1.925
990.96	1.924
991.13	1.926
991.30	1.939
991.46	1.952
991.63	1.963
991.80	1.971
991.97	1.971
992.13	1.957
992.30	1.955
992.47	1.963
992.64	1.994
992.80	1.982
992.97	1.951
993.14	1.938
993.31	1.930
993.47	1.946
993.64	1.944
993.81	1.940
993.98	1.965
994.14	1.953
994.31	1.944
994.48	1.924
994.64	1.942
994.81	1.932
994.98	1.927
995.15	1.933
995.31	1.939
995.48	1.955
995.65	1.968
995.82	1.994
995.98	2.018
996.15	2.018
996.32	2.012
996.48	1.999
996.65	2.000
996.82	2.020
996.99	1.984
997.15	1.984
997.32	1.967
997.49	1.979
997.65	2.013
997.82	2.000
997.99	2.045
998.15	2.042
998.32	2.040
998.49	2.031
998.65	2.050
998.82	2.027
998.99	2.019
999.15	2.010
999.32	1.967
999.49	1.924
999.65	1.895
999.82	1.907
999.99	1.904
1000.15	1.907
1000.32	1.908
1000.49	1.939
1000.65	1.940
1000.82	1.949
1000.99	1.950
1001.15	1.937
1001.32	1.961
1001.49	1.948
1001.65	1.907
1001.82	1.904
1001.99	1.917
1002.15	1.902
1002.32	1.944
1002.49	1.928
1002.65	1.907
1002.82	1.943
1002.99	1.985
1003.15	2.020
1003.32	2.037
1003.48	2.042
1003.65	2.001
1003.82	2.000
1003.98	1.971
1004.15	1.956
1004.32	1.973
1004.48	1.962
1004.65	1.981
1004.81	1.950
1004.98	1.955
1005.15	1.970
1005.31	1.997
1005.48	1.982
1005.64	2.006
1005.81	1.991
1005.98	2.036
1006.14	2.071
1006.31	2.064
1006.47	2.022
1006.64	1.988
1006.81	1.974
1006.97	1.998
1007.14	2.039
1007.30	2.059
1007.47	2.063
1007.63	2.057
1007.80	2.073
1007.97	2.074
1008.13	2.044
1008.30	2.071
1008.46	2.046
1008.63	2.081
1008.79	2.006
1008.96	2.026
1009.13	1.990
1009.29	1.974
1009.46	1.951
1009.62	1.971
1009.79	1.952
1009.95	1.983
1010.12	1.996
1010.28	1.983
1010.45	1.974
1010.62	1.970
1010.78	1.947
1010.95	1.976
1011.11	1.993
1011.28	1.972
1011.44	1.965
1011.61	1.965
1011.77	1.940
1011.94	1.947
1012.10	1.956
1012.27	1.999
1012.43	1.990
1012.60	2.012
1012.76	2.034
1012.93	2.056
1013.10	2.044
1013.26	2.060
1013.43	2.047
1013.59	2.051
1013.76	2.026
1013.92	2.030
1014.09	2.037
1014.25	2.037
1014.42	2.023
1014.58	2.022
1014.75	2.006
1014.91	2.019
1015.08	2.037
1015.24	2.074
1015.41	2.050
1015.57	2.041
1015.73	2.048
1015.90	2.040
1016.06	2.033
1016.23	2.016
1016.39	2.025
1016.56	2.021
1016.72	2.002
1016.89	2.023
1017.05	1.975
1017.22	2.032
1017.38	1.990
1017.55	1.992
1017.71	1.979
1017.88	1.993
1018.04	1.989
1018.21	2.006
1018.37	1.976
1018.53	1.951
1018.70	1.943
1018.86	1.950
1019.03	1.913
1019.19	1.938
1019.36	1.950
1019.52	1.971
1019.69	1.969
1019.85	1.947
1020.01	1.952
1020.18	1.945
1020.34	1.921
1020.51	1.961
1020.67	1.970
1020.84	2.013
1021.00	1.974
1021.16	1.942
1021.33	1.899
1021.49	1.910
1021.66	1.888
1021.82	1.888
1021.98	1.878
1022.15	1.910
1022.31	1.914
1022.48	1.942
1022.64	1.901
1022.80	1.862
1022.97	1.819
1023.13	1.824
1023.30	1.824
1023.46	1.826
1023.62	1.811
1023.79	1.817
1023.95	1.817
1024.12	1.788
1024.28	1.794
1024.44	1.818
1024.61	1.838
1024.77	1.880
1024.93	1.843
1025.10	1.881
1025.26	1.861
1025.43	1.912
1025.59	1.876
1025.75	1.866
1025.92	1.834
1026.08	1.832
1026.24	1.820
1026.41	1.817
1026.57	1.826
1026.73	1.815
1026.90	1.817
1027.06	1.823
1027.23	1.827
1027.39	1.832
1027.55	1.854
1027.72	1.862
1027.88	1.880
1028.04	1.895
1028.21	1.837
1028.37	1.867
1028.53	1.839
1028.70	1.907
1028.86	1.896
1029.02	1.911
1029.19	1.913
1029.35	1.932
1029.51	1.964
1029.67	1.991
1029.84	1.988
1030.00	1.946
1030.16	1.971
1030.33	1.913
1030.49	1.897
1030.65	1.887
1030.82	1.909
1030.98	1.887
1031.14	1.826
1031.31	1.811
1031.47	1.862
1031.63	1.868
1031.79	1.864
1031.96	1.853
1032.12	1.821
1032.28	1.794
1032.45	1.791
1032.61	1.805
1032.77	1.783
1032.93	1.752
1033.10	1.770
1033.26	1.823
1033.42	1.840
1033.58	1.812
1033.75	1.836
1033.91	1.898
1034.07	1.942
1034.24	1.925
1034.40	1.880
1034.56	1.938
1034.72	1.952
1034.89	1.840
1035.05	1.821
1035.21	1.818
1035.37	1.847
1035.54	1.809
1035.70	1.788
1035.86	1.797
1036.02	1.793
1036.19	1.784
1036.35	1.812
1036.51	1.796
1036.67	1.768
1036.83	1.742
1037.00	1.734
1037.16	1.714
1037.32	1.697
1037.48	1.685
1037.65	1.668
1037.81	1.707
1037.97	1.689
1038.13	1.676
1038.29	1.729
1038.46	1.772
1038.62	1.764
1038.78	1.777
1038.94	1.787
1039.10	1.832
1039.27	1.822
1039.43	1.801
1039.59	1.835
1039.75	1.858
1039.91	1.855
1040.08	1.854
1040.24	1.885
1040.40	2.023
1040.56	2.034
1040.72	1.998
1040.89	1.973
1041.05	2.023
1041.21	2.036
1041.37	2.062
1041.53	2.070
1041.69	2.120
1041.86	2.104
1042.02	2.165
1042.18	2.040
1042.34	2.073
1042.50	2.098
1042.66	2.154
1042.83	2.321
1042.99	2.303
1043.15	2.244
1043.31	2.270
1043.47	2.317
1043.63	2.399
1043.79	2.097
1043.96	2.112
1044.12	2.041
1044.28	2.080
1044.44	2.051
1044.60	1.986
1044.76	2.001
1044.92	2.047
1045.09	1.996
1045.25	1.950
1045.41	1.484
1045.57	1.538
1045.73	1.269
1045.89	-0.000
1046.05	15.465
1046.21	1.503
1046.38	1.957
1046.54	-0.000
1046.70	-0.000
1046.86	1.494
>>>>>End Processed Spectral Data<<<<<
