SpectraSuite Data File
++++++++++++++++++++++++++++++++++++
Date: Mon May 06 14:16:15 CDT 2013
User: Students
Dark Spectrum Present: Yes
Reference Spectrum Present: Yes
Number of Sampled Component Spectra: 1
Spectrometers: USB4H00887
Integration Time (usec): 25000 (USB4H00887)
Spectra Averaged: 10 (USB4H00887)
Boxcar Smoothing: 10 (USB4H00887)
Correct for Electrical Dark: No (USB4H00887)
Strobe/Lamp Enabled: No (USB4H00887)
Correct for Detector Non-linearity: No (USB4H00887)
Correct for Stray Light: No (USB4H00887)
Number of Pixels in Processed Spectrum: 3648
>>>>>Begin Processed Spectral Data<<<<<
345.83	0.824
346.05	0.824
346.26	0.824
346.48	-0.347
346.70	-0.301
346.92	1.012
347.14	0.315
347.35	0.376
347.57	-0.000
347.79	0.402
348.01	0.260
348.23	0.294
348.44	0.315
348.66	0.313
348.88	0.384
349.10	0.450
349.32	0.523
349.53	0.475
349.75	0.447
349.97	0.453
350.19	0.665
350.41	-0.000
350.62	-0.000
350.84	-0.000
351.06	-0.000
351.28	-0.000
351.50	-0.000
351.71	-0.000
351.93	-0.000
352.15	-0.000
352.37	-0.000
352.58	-0.000
352.80	-0.000
353.02	-0.000
353.24	-0.000
353.46	-0.000
353.67	-0.000
353.89	-0.000
354.11	-0.000
354.33	-0.000
354.54	-0.000
354.76	-0.000
354.98	-0.000
355.20	-0.000
355.41	-0.000
355.63	-0.000
355.85	-0.000
356.07	-0.000
356.28	-0.000
356.50	-0.000
356.72	-0.000
356.94	-0.000
357.15	1.464
357.37	0.976
357.59	0.863
357.81	0.926
358.02	1.074
358.24	-0.000
358.46	-0.000
358.68	-0.000
358.89	2.312
359.11	2.629
359.33	1.171
359.55	0.808
359.76	1.079
359.98	1.163
360.20	1.885
360.42	-0.000
360.63	1.258
360.85	1.084
361.07	1.557
361.29	1.517
361.50	1.436
361.72	1.499
361.94	1.590
362.15	-0.000
362.37	-0.000
362.59	0.975
362.81	1.473
363.02	0.874
363.24	0.930
363.46	1.366
363.68	1.187
363.89	2.265
364.11	-0.000
364.33	-0.000
364.54	1.506
364.76	1.453
364.98	1.730
365.20	1.525
365.41	3.179
365.63	1.414
365.85	-0.000
366.06	-0.000
366.28	-0.000
366.50	-0.000
366.71	-0.000
366.93	-0.000
367.15	-0.000
367.37	-0.000
367.58	-0.000
367.80	-0.000
368.02	-0.000
368.23	-0.000
368.45	-0.000
368.67	-0.000
368.88	-0.000
369.10	-0.000
369.32	-0.000
369.53	-0.000
369.75	-0.000
369.97	-0.000
370.19	-0.000
370.40	-0.000
370.62	1.126
370.84	0.601
371.05	0.621
371.27	0.672
371.49	0.841
371.70	0.797
371.92	0.853
372.14	1.029
372.35	0.757
372.57	0.869
372.79	0.841
373.00	0.680
373.22	0.664
373.44	0.588
373.65	0.467
373.87	0.568
374.09	0.568
374.30	0.631
374.52	0.535
374.74	0.529
374.95	0.564
375.17	0.595
375.39	0.831
375.60	0.861
375.82	0.862
376.04	0.820
376.25	1.059
376.47	1.005
376.68	1.038
376.90	1.661
377.12	-0.000
377.33	-0.000
377.55	-0.000
377.77	-0.000
377.98	-0.000
378.20	-0.000
378.42	-0.000
378.63	-0.000
378.85	-0.000
379.07	-0.000
379.28	-0.000
379.50	-0.000
379.71	-0.000
379.93	-0.000
380.15	-0.000
380.36	-0.000
380.58	-0.000
380.80	-0.000
381.01	-0.000
381.23	-0.000
381.44	-0.000
381.66	-0.000
381.88	-0.000
382.09	-0.000
382.31	-0.000
382.53	-0.000
382.74	-0.000
382.96	-0.000
383.17	-0.000
383.39	-0.000
383.61	-0.000
383.82	-0.000
384.04	-0.000
384.25	-0.000
384.47	-0.000
384.69	-0.000
384.90	-0.000
385.12	-0.000
385.33	-0.000
385.55	-0.000
385.77	-0.000
385.98	-0.000
386.20	-0.000
386.41	-0.000
386.63	-0.000
386.85	-0.000
387.06	-0.000
387.28	-0.000
387.49	-0.000
387.71	1.812
387.93	1.599
388.14	1.611
388.36	1.285
388.57	0.996
388.79	0.887
389.01	0.818
389.22	0.854
389.44	0.949
389.65	0.794
389.87	0.832
390.08	0.805
390.30	0.758
390.52	0.842
390.73	0.884
390.95	0.973
391.16	0.976
391.38	0.963
391.59	1.146
391.81	1.269
392.03	1.046
392.24	1.131
392.46	1.006
392.67	1.028
392.89	1.161
393.10	1.319
393.32	1.341
393.53	1.722
393.75	1.628
393.97	1.495
394.18	-0.000
394.40	-0.000
394.61	1.946
394.83	-0.000
395.04	2.645
395.26	-0.000
395.47	2.790
395.69	1.902
395.91	-0.000
396.12	-0.000
396.34	-0.000
396.55	-0.000
396.77	-0.000
396.98	-0.000
397.20	2.810
397.41	2.351
397.63	1.739
397.84	1.798
398.06	1.905
398.27	1.938
398.49	1.500
398.71	1.359
398.92	1.265
399.14	1.586
399.35	2.503
399.57	-0.000
399.78	-0.000
400.00	-0.000
400.21	-0.000
400.43	2.704
400.64	1.435
400.86	1.368
401.07	1.755
401.29	1.436
401.50	2.068
401.72	-0.000
401.93	-0.000
402.15	-0.000
402.36	-0.000
402.58	-0.000
402.79	-0.000
403.01	-0.000
403.22	-0.000
403.44	-0.000
403.65	-0.000
403.87	-0.000
404.08	-0.000
404.30	-0.000
404.51	-0.000
404.73	-0.000
404.94	-0.000
405.16	-0.000
405.37	-0.000
405.59	-0.000
405.80	-0.000
406.02	-0.000
406.23	-0.000
406.45	2.688
406.66	-0.000
406.88	-0.000
407.09	-0.000
407.31	-0.000
407.52	-0.000
407.74	-0.000
407.95	-0.000
408.17	-0.000
408.38	-0.000
408.60	-0.000
408.81	-0.000
409.03	-0.000
409.24	-0.000
409.45	-0.000
409.67	-0.000
409.88	-0.000
410.10	-0.000
410.31	-0.000
410.53	-0.000
410.74	-0.000
410.96	-0.000
411.17	-0.000
411.39	-0.000
411.60	-0.000
411.82	-0.000
412.03	-0.000
412.24	-0.000
412.46	-0.000
412.67	-0.000
412.89	-0.000
413.10	-0.000
413.32	-0.000
413.53	-0.000
413.75	-0.000
413.96	-0.000
414.17	-0.000
414.39	-0.000
414.60	-0.000
414.82	-0.000
415.03	-0.000
415.25	-0.000
415.46	-0.000
415.68	-0.000
415.89	-0.000
416.10	-0.000
416.32	-0.000
416.53	2.990
416.75	2.600
416.96	1.929
417.18	2.414
417.39	-0.000
417.60	-0.000
417.82	2.747
418.03	2.120
418.25	3.086
418.46	-0.000
418.67	-0.000
418.89	-0.000
419.10	-0.000
419.32	-0.000
419.53	-0.000
419.75	-0.000
419.96	-0.000
420.17	-0.000
420.39	-0.000
420.60	-0.000
420.82	-0.000
421.03	-0.000
421.24	-0.000
421.46	-0.000
421.67	-0.000
421.89	-0.000
422.10	-0.000
422.31	-0.000
422.53	-0.000
422.74	-0.000
422.96	-0.000
423.17	-0.000
423.38	3.442
423.60	2.123
423.81	2.077
424.03	1.931
424.24	1.951
424.45	2.205
424.67	1.928
424.88	1.725
425.09	1.870
425.31	1.792
425.52	1.687
425.74	1.821
425.95	1.866
426.16	2.211
426.38	-0.000
426.59	2.827
426.80	1.895
427.02	1.834
427.23	1.761
427.45	1.766
427.66	1.782
427.87	2.497
428.09	3.411
428.30	2.567
428.51	-0.000
428.73	3.033
428.94	-0.000
429.15	-0.000
429.37	-0.000
429.58	2.208
429.79	2.005
430.01	1.937
430.22	1.747
430.44	1.735
430.65	1.587
430.86	1.505
431.08	1.536
431.29	1.657
431.50	1.654
431.72	1.948
431.93	1.716
432.14	1.788
432.36	1.714
432.57	1.784
432.78	1.837
433.00	1.768
433.21	1.673
433.42	1.604
433.64	1.588
433.85	1.637
434.06	1.718
434.28	1.910
434.49	2.181
434.70	2.122
434.92	1.802
435.13	1.979
435.34	1.840
435.56	1.938
435.77	1.932
435.98	2.178
436.20	2.082
436.41	2.179
436.62	1.772
436.83	1.656
437.05	1.678
437.26	1.696
437.47	1.757
437.69	1.885
437.90	1.991
438.11	1.878
438.33	1.857
438.54	1.822
438.75	1.675
438.97	1.612
439.18	1.613
439.39	1.753
439.60	1.646
439.82	1.675
440.03	1.664
440.24	1.764
440.46	1.672
440.67	1.569
440.88	1.565
441.10	1.685
441.31	1.701
441.52	1.675
441.73	1.723
441.95	1.691
442.16	1.650
442.37	1.652
442.58	1.634
442.80	1.728
443.01	1.731
443.22	1.921
443.44	1.832
443.65	1.816
443.86	1.855
444.07	1.928
444.29	2.004
444.50	2.136
444.71	1.940
444.92	1.886
445.14	2.130
445.35	2.405
445.56	2.276
445.78	2.448
445.99	2.266
446.20	2.023
446.41	2.084
446.63	2.162
446.84	1.958
447.05	1.934
447.26	1.842
447.48	1.834
447.69	1.826
447.90	1.822
448.11	1.799
448.33	1.793
448.54	1.802
448.75	1.759
448.96	1.643
449.18	1.675
449.39	1.767
449.60	1.690
449.81	1.626
450.03	1.657
450.24	1.665
450.45	1.698
450.66	1.698
450.87	1.635
451.09	1.670
451.30	1.707
451.51	1.832
451.72	1.891
451.94	1.798
452.15	1.778
452.36	1.806
452.57	1.895
452.78	1.903
453.00	1.896
453.21	1.916
453.42	2.044
453.63	2.059
453.85	2.005
454.06	2.014
454.27	2.219
454.48	2.324
454.69	2.271
454.91	2.228
455.12	2.254
455.33	2.433
455.54	2.145
455.75	2.034
455.97	1.970
456.18	1.901
456.39	1.915
456.60	1.935
456.81	1.935
457.03	1.840
457.24	1.784
457.45	1.829
457.66	1.832
457.87	1.859
458.09	1.803
458.30	1.721
458.51	1.706
458.72	1.625
458.93	1.562
459.15	1.603
459.36	1.591
459.57	1.556
459.78	1.566
459.99	1.579
460.20	1.610
460.42	1.629
460.63	1.651
460.84	1.658
461.05	1.579
461.26	1.575
461.47	1.589
461.69	1.584
461.90	1.546
462.11	1.523
462.32	1.481
462.53	1.474
462.74	1.523
462.96	1.492
463.17	1.495
463.38	1.514
463.59	1.458
463.80	1.478
464.01	1.498
464.23	1.499
464.44	1.503
464.65	1.492
464.86	1.469
465.07	1.494
465.28	1.482
465.49	1.527
465.71	1.533
465.92	1.541
466.13	1.570
466.34	1.577
466.55	1.603
466.76	1.639
466.97	1.669
467.19	1.627
467.40	1.662
467.61	1.649
467.82	1.649
468.03	1.716
468.24	1.687
468.45	1.674
468.66	1.674
468.88	1.692
469.09	1.701
469.30	1.704
469.51	1.654
469.72	1.686
469.93	1.660
470.14	1.654
470.35	1.656
470.57	1.628
470.78	1.641
470.99	1.624
471.20	1.615
471.41	1.621
471.62	1.653
471.83	1.629
472.04	1.631
472.25	1.610
472.47	1.603
472.68	1.586
472.89	1.584
473.10	1.535
473.31	1.530
473.52	1.533
473.73	1.534
473.94	1.534
474.15	1.523
474.36	1.523
474.57	1.518
474.79	1.515
475.00	1.517
475.21	1.502
475.42	1.506
475.63	1.504
475.84	1.496
476.05	1.495
476.26	1.497
476.47	1.512
476.68	1.535
476.89	1.536
477.10	1.549
477.32	1.543
477.53	1.590
477.74	1.589
477.95	1.583
478.16	1.581
478.37	1.581
478.58	1.570
478.79	1.566
479.00	1.564
479.21	1.563
479.42	1.560
479.63	1.551
479.84	1.532
480.05	1.533
480.26	1.526
480.47	1.501
480.69	1.510
480.90	1.505
481.11	1.497
481.32	1.492
481.53	1.491
481.74	1.510
481.95	1.502
482.16	1.503
482.37	1.494
482.58	1.493
482.79	1.496
483.00	1.489
483.21	1.498
483.42	1.500
483.63	1.486
483.84	1.489
484.05	1.500
484.26	1.524
484.47	1.534
484.68	1.542
484.89	1.553
485.10	1.549
485.31	1.547
485.52	1.540
485.73	1.518
485.94	1.525
486.15	1.499
486.37	1.485
486.58	1.486
486.79	1.486
487.00	1.494
487.21	1.492
487.42	1.516
487.63	1.499
487.84	1.492
488.05	1.506
488.26	1.499
488.47	1.502
488.68	1.493
488.89	1.488
489.10	1.483
489.31	1.477
489.52	1.484
489.73	1.489
489.94	1.490
490.15	1.506
490.36	1.496
490.57	1.503
490.78	1.511
490.99	1.502
491.20	1.507
491.41	1.497
491.62	1.489
491.83	1.489
492.04	1.494
492.25	1.499
492.45	1.501
492.66	1.510
492.87	1.502
493.08	1.506
493.29	1.505
493.50	1.506
493.71	1.517
493.92	1.512
494.13	1.501
494.34	1.502
494.55	1.509
494.76	1.513
494.97	1.522
495.18	1.528
495.39	1.527
495.60	1.523
495.81	1.525
496.02	1.529
496.23	1.524
496.44	1.526
496.65	1.523
496.86	1.524
497.07	1.524
497.28	1.528
497.49	1.519
497.70	1.518
497.91	1.513
498.12	1.513
498.32	1.504
498.53	1.519
498.74	1.519
498.95	1.519
499.16	1.527
499.37	1.519
499.58	1.517
499.79	1.515
500.00	1.520
500.21	1.528
500.42	1.530
500.63	1.532
500.84	1.535
501.05	1.542
501.26	1.550
501.46	1.554
501.67	1.562
501.88	1.584
502.09	1.586
502.30	1.598
502.51	1.597
502.72	1.618
502.93	1.616
503.14	1.615
503.35	1.612
503.56	1.598
503.77	1.607
503.97	1.598
504.18	1.610
504.39	1.613
504.60	1.622
504.81	1.624
505.02	1.624
505.23	1.629
505.44	1.629
505.65	1.611
505.86	1.614
506.07	1.616
506.27	1.609
506.48	1.596
506.69	1.583
506.90	1.583
507.11	1.588
507.32	1.589
507.53	1.594
507.74	1.593
507.95	1.599
508.15	1.600
508.36	1.607
508.57	1.606
508.78	1.603
508.99	1.604
509.20	1.596
509.41	1.592
509.62	1.595
509.82	1.592
510.03	1.597
510.24	1.596
510.45	1.587
510.66	1.583
510.87	1.596
511.08	1.612
511.29	1.621
511.49	1.609
511.70	1.604
511.91	1.612
512.12	1.610
512.33	1.608
512.54	1.608
512.75	1.611
512.95	1.612
513.16	1.615
513.37	1.610
513.58	1.609
513.79	1.614
514.00	1.614
514.20	1.612
514.41	1.612
514.62	1.614
514.83	1.619
515.04	1.628
515.25	1.624
515.46	1.614
515.66	1.604
515.87	1.613
516.08	1.611
516.29	1.604
516.50	1.606
516.71	1.617
516.91	1.619
517.12	1.610
517.33	1.616
517.54	1.616
517.75	1.612
517.95	1.625
518.16	1.628
518.37	1.624
518.58	1.630
518.79	1.638
519.00	1.643
519.20	1.643
519.41	1.639
519.62	1.644
519.83	1.646
520.04	1.651
520.24	1.636
520.45	1.644
520.66	1.659
520.87	1.660
521.08	1.665
521.28	1.665
521.49	1.672
521.70	1.667
521.91	1.661
522.12	1.668
522.32	1.678
522.53	1.677
522.74	1.681
522.95	1.683
523.16	1.677
523.36	1.677
523.57	1.679
523.78	1.677
523.99	1.680
524.20	1.681
524.40	1.684
524.61	1.695
524.82	1.687
525.03	1.674
525.23	1.676
525.44	1.661
525.65	1.658
525.86	1.665
526.06	1.668
526.27	1.676
526.48	1.668
526.69	1.665
526.90	1.667
527.10	1.669
527.31	1.659
527.52	1.657
527.73	1.644
527.93	1.650
528.14	1.648
528.35	1.640
528.56	1.637
528.76	1.641
528.97	1.642
529.18	1.644
529.39	1.644
529.59	1.651
529.80	1.652
530.01	1.655
530.22	1.654
530.42	1.652
530.63	1.658
530.84	1.661
531.05	1.652
531.25	1.644
531.46	1.639
531.67	1.645
531.88	1.649
532.08	1.652
532.29	1.645
532.50	1.643
532.70	1.648
532.91	1.658
533.12	1.659
533.33	1.663
533.53	1.666
533.74	1.664
533.95	1.654
534.15	1.661
534.36	1.661
534.57	1.663
534.78	1.664
534.98	1.659
535.19	1.660
535.40	1.660
535.60	1.669
535.81	1.668
536.02	1.665
536.23	1.671
536.43	1.675
536.64	1.675
536.85	1.680
537.05	1.677
537.26	1.673
537.47	1.672
537.67	1.666
537.88	1.664
538.09	1.660
538.30	1.659
538.50	1.651
538.71	1.651
538.92	1.644
539.12	1.643
539.33	1.637
539.54	1.634
539.74	1.635
539.95	1.632
540.16	1.636
540.36	1.640
540.57	1.633
540.78	1.636
540.98	1.642
541.19	1.643
541.40	1.645
541.60	1.641
541.81	1.637
542.02	1.632
542.22	1.633
542.43	1.635
542.64	1.637
542.84	1.642
543.05	1.647
543.26	1.657
543.46	1.653
543.67	1.661
543.88	1.656
544.08	1.660
544.29	1.653
544.50	1.654
544.70	1.650
544.91	1.648
545.12	1.645
545.32	1.643
545.53	1.638
545.74	1.639
545.94	1.648
546.15	1.649
546.35	1.651
546.56	1.653
546.77	1.656
546.97	1.654
547.18	1.656
547.39	1.649
547.59	1.643
547.80	1.649
548.01	1.648
548.21	1.652
548.42	1.647
548.62	1.662
548.83	1.658
549.04	1.666
549.24	1.670
549.45	1.670
549.65	1.661
549.86	1.661
550.07	1.663
550.27	1.656
550.48	1.650
550.69	1.652
550.89	1.652
551.10	1.647
551.30	1.648
551.51	1.645
551.72	1.648
551.92	1.644
552.13	1.636
552.33	1.639
552.54	1.643
552.75	1.647
552.95	1.636
553.16	1.635
553.36	1.633
553.57	1.628
553.78	1.625
553.98	1.633
554.19	1.638
554.39	1.643
554.60	1.641
554.80	1.642
555.01	1.642
555.22	1.639
555.42	1.647
555.63	1.648
555.83	1.649
556.04	1.650
556.25	1.648
556.45	1.652
556.66	1.648
556.86	1.646
557.07	1.643
557.27	1.645
557.48	1.646
557.68	1.645
557.89	1.649
558.10	1.651
558.30	1.643
558.51	1.640
558.71	1.634
558.92	1.634
559.12	1.635
559.33	1.637
559.54	1.641
559.74	1.632
559.95	1.632
560.15	1.635
560.36	1.629
560.56	1.629
560.77	1.634
560.97	1.632
561.18	1.627
561.38	1.625
561.59	1.624
561.79	1.628
562.00	1.622
562.21	1.624
562.41	1.626
562.62	1.629
562.82	1.628
563.03	1.626
563.23	1.621
563.44	1.620
563.64	1.619
563.85	1.617
564.05	1.620
564.26	1.624
564.46	1.618
564.67	1.622
564.87	1.625
565.08	1.624
565.28	1.624
565.49	1.631
565.69	1.631
565.90	1.633
566.10	1.629
566.31	1.633
566.51	1.629
566.72	1.622
566.92	1.616
567.13	1.612
567.33	1.613
567.54	1.621
567.74	1.621
567.95	1.620
568.15	1.623
568.36	1.625
568.56	1.619
568.77	1.620
568.97	1.617
569.18	1.618
569.38	1.611
569.59	1.612
569.79	1.607
570.00	1.609
570.20	1.608
570.41	1.613
570.61	1.609
570.82	1.612
571.02	1.617
571.23	1.619
571.43	1.627
571.64	1.627
571.84	1.624
572.05	1.625
572.25	1.623
572.45	1.619
572.66	1.618
572.86	1.621
573.07	1.620
573.27	1.620
573.48	1.618
573.68	1.625
573.89	1.620
574.09	1.618
574.30	1.617
574.50	1.613
574.70	1.610
574.91	1.616
575.11	1.616
575.32	1.613
575.52	1.613
575.73	1.614
575.93	1.611
576.14	1.611
576.34	1.610
576.54	1.613
576.75	1.616
576.95	1.617
577.16	1.619
577.36	1.619
577.57	1.622
577.77	1.620
577.97	1.614
578.18	1.621
578.38	1.624
578.59	1.623
578.79	1.624
579.00	1.625
579.20	1.624
579.40	1.623
579.61	1.627
579.81	1.627
580.02	1.622
580.22	1.623
580.42	1.622
580.63	1.621
580.83	1.618
581.04	1.612
581.24	1.610
581.45	1.602
581.65	1.605
581.85	1.606
582.06	1.605
582.26	1.605
582.47	1.604
582.67	1.602
582.87	1.600
583.08	1.599
583.28	1.597
583.48	1.597
583.69	1.596
583.89	1.596
584.10	1.598
584.30	1.602
584.50	1.604
584.71	1.607
584.91	1.607
585.12	1.604
585.32	1.607
585.52	1.608
585.73	1.612
585.93	1.607
586.13	1.608
586.34	1.605
586.54	1.611
586.75	1.616
586.95	1.617
587.15	1.622
587.36	1.628
587.56	1.624
587.76	1.622
587.97	1.623
588.17	1.618
588.37	1.619
588.58	1.616
588.78	1.616
588.98	1.614
589.19	1.615
589.39	1.622
589.60	1.623
589.80	1.620
590.00	1.622
590.21	1.626
590.41	1.619
590.61	1.625
590.82	1.623
591.02	1.613
591.22	1.611
591.43	1.611
591.63	1.609
591.83	1.618
592.04	1.616
592.24	1.614
592.44	1.616
592.65	1.616
592.85	1.615
593.05	1.612
593.26	1.612
593.46	1.613
593.66	1.612
593.86	1.608
594.07	1.608
594.27	1.605
594.47	1.604
594.68	1.607
594.88	1.607
595.08	1.605
595.29	1.610
595.49	1.614
595.69	1.613
595.90	1.608
596.10	1.604
596.30	1.602
596.50	1.600
596.71	1.598
596.91	1.599
597.11	1.598
597.32	1.602
597.52	1.605
597.72	1.604
597.93	1.601
598.13	1.607
598.33	1.610
598.53	1.612
598.74	1.612
598.94	1.615
599.14	1.618
599.35	1.620
599.55	1.619
599.75	1.616
599.95	1.615
600.16	1.619
600.36	1.616
600.56	1.619
600.76	1.621
600.97	1.624
601.17	1.622
601.37	1.623
601.58	1.619
601.78	1.619
601.98	1.618
602.18	1.621
602.39	1.618
602.59	1.616
602.79	1.616
602.99	1.615
603.20	1.615
603.40	1.609
603.60	1.609
603.80	1.610
604.01	1.612
604.21	1.615
604.41	1.615
604.61	1.618
604.82	1.621
605.02	1.617
605.22	1.619
605.42	1.620
605.62	1.621
605.83	1.621
606.03	1.624
606.23	1.624
606.43	1.624
606.64	1.624
606.84	1.625
607.04	1.624
607.24	1.624
607.45	1.618
607.65	1.621
607.85	1.618
608.05	1.620
608.25	1.619
608.46	1.618
608.66	1.619
608.86	1.620
609.06	1.617
609.26	1.622
609.47	1.620
609.67	1.622
609.87	1.623
610.07	1.625
610.28	1.621
610.48	1.620
610.68	1.614
610.88	1.617
611.08	1.614
611.29	1.614
611.49	1.617
611.69	1.618
611.89	1.616
612.09	1.614
612.29	1.609
612.50	1.610
612.70	1.608
612.90	1.606
613.10	1.607
613.30	1.609
613.51	1.609
613.71	1.608
613.91	1.609
614.11	1.608
614.31	1.608
614.51	1.607
614.72	1.608
614.92	1.611
615.12	1.613
615.32	1.615
615.52	1.617
615.72	1.615
615.93	1.616
616.13	1.616
616.33	1.622
616.53	1.629
616.73	1.624
616.93	1.624
617.14	1.621
617.34	1.618
617.54	1.617
617.74	1.614
617.94	1.615
618.14	1.612
618.34	1.611
618.55	1.612
618.75	1.614
618.95	1.614
619.15	1.615
619.35	1.614
619.55	1.615
619.75	1.613
619.96	1.616
620.16	1.618
620.36	1.620
620.56	1.620
620.76	1.615
620.96	1.616
621.16	1.618
621.36	1.621
621.57	1.620
621.77	1.619
621.97	1.622
622.17	1.622
622.37	1.622
622.57	1.627
622.77	1.627
622.97	1.628
623.18	1.631
623.38	1.633
623.58	1.628
623.78	1.629
623.98	1.630
624.18	1.626
624.38	1.625
624.58	1.624
624.78	1.619
624.98	1.619
625.19	1.621
625.39	1.620
625.59	1.618
625.79	1.619
625.99	1.620
626.19	1.621
626.39	1.621
626.59	1.625
626.79	1.624
626.99	1.619
627.19	1.617
627.40	1.614
627.60	1.613
627.80	1.618
628.00	1.615
628.20	1.615
628.40	1.616
628.60	1.615
628.80	1.615
629.00	1.616
629.20	1.616
629.40	1.619
629.60	1.622
629.80	1.625
630.00	1.626
630.20	1.626
630.41	1.621
630.61	1.623
630.81	1.622
631.01	1.621
631.21	1.622
631.41	1.623
631.61	1.625
631.81	1.628
632.01	1.626
632.21	1.631
632.41	1.634
632.61	1.635
632.81	1.636
633.01	1.638
633.21	1.638
633.41	1.640
633.61	1.634
633.81	1.632
634.01	1.633
634.21	1.637
634.41	1.636
634.61	1.639
634.81	1.638
635.01	1.637
635.22	1.639
635.42	1.638
635.62	1.639
635.82	1.638
636.02	1.631
636.22	1.635
636.42	1.632
636.62	1.630
636.82	1.627
637.02	1.629
637.22	1.631
637.42	1.633
637.62	1.633
637.82	1.637
638.02	1.635
638.22	1.635
638.42	1.635
638.62	1.635
638.82	1.636
639.02	1.638
639.22	1.639
639.42	1.638
639.62	1.637
639.82	1.640
640.02	1.641
640.22	1.645
640.42	1.640
640.62	1.636
640.82	1.634
641.02	1.635
641.22	1.632
641.42	1.629
641.61	1.630
641.81	1.632
642.01	1.631
642.21	1.632
642.41	1.632
642.61	1.631
642.81	1.632
643.01	1.633
643.21	1.629
643.41	1.626
643.61	1.628
643.81	1.630
644.01	1.628
644.21	1.628
644.41	1.627
644.61	1.629
644.81	1.633
645.01	1.634
645.21	1.642
645.41	1.643
645.61	1.644
645.81	1.640
646.01	1.639
646.21	1.637
646.40	1.639
646.60	1.636
646.80	1.635
647.00	1.636
647.20	1.636
647.40	1.639
647.60	1.644
647.80	1.642
648.00	1.643
648.20	1.644
648.40	1.641
648.60	1.642
648.80	1.641
649.00	1.640
649.20	1.639
649.39	1.639
649.59	1.641
649.79	1.643
649.99	1.646
650.19	1.647
650.39	1.650
650.59	1.649
650.79	1.648
650.99	1.647
651.19	1.649
651.39	1.649
651.58	1.651
651.78	1.643
651.98	1.644
652.18	1.643
652.38	1.644
652.58	1.643
652.78	1.640
652.98	1.640
653.18	1.643
653.38	1.646
653.57	1.643
653.77	1.642
653.97	1.641
654.17	1.640
654.37	1.638
654.57	1.636
654.77	1.635
654.97	1.640
655.16	1.639
655.36	1.635
655.56	1.634
655.76	1.631
655.96	1.634
656.16	1.635
656.36	1.633
656.56	1.634
656.75	1.636
656.95	1.640
657.15	1.640
657.35	1.638
657.55	1.637
657.75	1.638
657.95	1.641
658.14	1.638
658.34	1.639
658.54	1.638
658.74	1.640
658.94	1.641
659.14	1.641
659.34	1.644
659.53	1.646
659.73	1.648
659.93	1.649
660.13	1.650
660.33	1.646
660.53	1.648
660.72	1.649
660.92	1.647
661.12	1.645
661.32	1.648
661.52	1.648
661.72	1.651
661.91	1.650
662.11	1.649
662.31	1.650
662.51	1.647
662.71	1.648
662.90	1.647
663.10	1.649
663.30	1.648
663.50	1.647
663.70	1.646
663.90	1.643
664.09	1.643
664.29	1.643
664.49	1.648
664.69	1.643
664.89	1.641
665.08	1.644
665.28	1.648
665.48	1.646
665.68	1.646
665.88	1.642
666.07	1.641
666.27	1.642
666.47	1.643
666.67	1.644
666.87	1.645
667.06	1.648
667.26	1.647
667.46	1.648
667.66	1.647
667.85	1.647
668.05	1.650
668.25	1.648
668.45	1.646
668.65	1.646
668.84	1.652
669.04	1.654
669.24	1.655
669.44	1.658
669.63	1.659
669.83	1.663
670.03	1.668
670.23	1.669
670.42	1.666
670.62	1.667
670.82	1.666
671.02	1.669
671.22	1.669
671.41	1.666
671.61	1.668
671.81	1.670
672.01	1.670
672.20	1.667
672.40	1.671
672.60	1.674
672.80	1.675
672.99	1.675
673.19	1.672
673.39	1.669
673.58	1.662
673.78	1.664
673.98	1.662
674.18	1.660
674.37	1.658
674.57	1.664
674.77	1.666
674.97	1.670
675.16	1.671
675.36	1.670
675.56	1.672
675.75	1.670
675.95	1.669
676.15	1.670
676.35	1.670
676.54	1.670
676.74	1.667
676.94	1.668
677.13	1.668
677.33	1.668
677.53	1.672
677.73	1.678
677.92	1.675
678.12	1.676
678.32	1.673
678.51	1.673
678.71	1.672
678.91	1.667
679.11	1.666
679.30	1.666
679.50	1.668
679.70	1.670
679.89	1.671
680.09	1.670
680.29	1.670
680.48	1.673
680.68	1.674
680.88	1.677
681.07	1.676
681.27	1.674
681.47	1.675
681.66	1.677
681.86	1.674
682.06	1.676
682.25	1.675
682.45	1.677
682.65	1.678
682.84	1.675
683.04	1.673
683.24	1.674
683.43	1.675
683.63	1.675
683.83	1.674
684.02	1.675
684.22	1.679
684.42	1.679
684.61	1.680
684.81	1.678
685.01	1.678
685.20	1.679
685.40	1.677
685.60	1.678
685.79	1.673
685.99	1.676
686.19	1.676
686.38	1.675
686.58	1.676
686.77	1.678
686.97	1.681
687.17	1.684
687.36	1.686
687.56	1.684
687.76	1.682
687.95	1.680
688.15	1.683
688.34	1.682
688.54	1.681
688.74	1.682
688.93	1.680
689.13	1.682
689.33	1.683
689.52	1.687
689.72	1.685
689.91	1.690
690.11	1.686
690.31	1.683
690.50	1.687
690.70	1.687
690.89	1.685
691.09	1.684
691.29	1.685
691.48	1.679
691.68	1.677
691.87	1.678
692.07	1.677
692.27	1.676
692.46	1.676
692.66	1.678
692.85	1.676
693.05	1.680
693.25	1.676
693.44	1.673
693.64	1.675
693.83	1.673
694.03	1.673
694.22	1.676
694.42	1.679
694.62	1.677
694.81	1.677
695.01	1.675
695.20	1.676
695.40	1.677
695.59	1.681
695.79	1.681
695.99	1.685
696.18	1.685
696.38	1.682
696.57	1.680
696.77	1.680
696.96	1.683
697.16	1.682
697.36	1.683
697.55	1.681
697.75	1.679
697.94	1.683
698.14	1.681
698.33	1.679
698.53	1.679
698.72	1.682
698.92	1.680
699.11	1.682
699.31	1.681
699.51	1.676
699.70	1.677
699.90	1.677
700.09	1.673
700.29	1.674
700.48	1.680
700.68	1.681
700.87	1.679
701.07	1.681
701.26	1.680
701.46	1.681
701.65	1.684
701.85	1.683
702.04	1.680
702.24	1.681
702.43	1.682
702.63	1.683
702.82	1.681
703.02	1.683
703.21	1.684
703.41	1.684
703.60	1.689
703.80	1.690
703.99	1.691
704.19	1.691
704.38	1.693
704.58	1.692
704.77	1.692
704.97	1.693
705.16	1.691
705.36	1.693
705.55	1.695
705.75	1.694
705.94	1.696
706.14	1.699
706.33	1.696
706.53	1.696
706.72	1.697
706.92	1.696
707.11	1.697
707.31	1.697
707.50	1.697
707.70	1.694
707.89	1.691
708.09	1.690
708.28	1.693
708.48	1.691
708.67	1.692
708.86	1.694
709.06	1.693
709.25	1.689
709.45	1.691
709.64	1.688
709.84	1.687
710.03	1.687
710.23	1.685
710.42	1.687
710.62	1.688
710.81	1.686
711.00	1.686
711.20	1.690
711.39	1.691
711.59	1.692
711.78	1.698
711.98	1.700
712.17	1.699
712.37	1.699
712.56	1.704
712.75	1.701
712.95	1.700
713.14	1.699
713.34	1.703
713.53	1.699
713.73	1.701
713.92	1.703
714.11	1.704
714.31	1.708
714.50	1.709
714.70	1.708
714.89	1.710
715.08	1.711
715.28	1.708
715.47	1.704
715.67	1.704
715.86	1.697
716.06	1.700
716.25	1.700
716.44	1.698
716.64	1.692
716.83	1.694
717.03	1.696
717.22	1.697
717.41	1.696
717.61	1.697
717.80	1.699
717.99	1.696
718.19	1.693
718.38	1.690
718.58	1.688
718.77	1.686
718.96	1.686
719.16	1.686
719.35	1.682
719.55	1.686
719.74	1.687
719.93	1.690
720.13	1.689
720.32	1.690
720.51	1.694
720.71	1.693
720.90	1.691
721.10	1.690
721.29	1.691
721.48	1.691
721.68	1.693
721.87	1.694
722.06	1.696
722.26	1.699
722.45	1.701
722.64	1.701
722.84	1.704
723.03	1.707
723.22	1.705
723.42	1.709
723.61	1.704
723.80	1.705
724.00	1.707
724.19	1.706
724.38	1.710
724.58	1.711
724.77	1.715
724.96	1.716
725.16	1.717
725.35	1.717
725.54	1.721
725.74	1.720
725.93	1.717
726.12	1.721
726.32	1.724
726.51	1.724
726.70	1.726
726.90	1.726
727.09	1.727
727.28	1.734
727.48	1.736
727.67	1.740
727.86	1.739
728.06	1.735
728.25	1.735
728.44	1.733
728.64	1.729
728.83	1.727
729.02	1.732
729.21	1.732
729.41	1.734
729.60	1.730
729.79	1.730
729.99	1.726
730.18	1.722
730.37	1.722
730.56	1.722
730.76	1.722
730.95	1.719
731.14	1.715
731.34	1.710
731.53	1.710
731.72	1.712
731.91	1.710
732.11	1.710
732.30	1.715
732.49	1.713
732.69	1.713
732.88	1.718
733.07	1.713
733.26	1.713
733.46	1.712
733.65	1.713
733.84	1.710
734.03	1.711
734.23	1.716
734.42	1.715
734.61	1.715
734.80	1.714
735.00	1.716
735.19	1.717
735.38	1.716
735.57	1.717
735.77	1.719
735.96	1.721
736.15	1.724
736.34	1.719
736.54	1.714
736.73	1.712
736.92	1.709
737.11	1.711
737.31	1.706
737.50	1.704
737.69	1.707
737.88	1.712
738.07	1.713
738.27	1.711
738.46	1.712
738.65	1.712
738.84	1.713
739.04	1.713
739.23	1.712
739.42	1.712
739.61	1.708
739.80	1.702
740.00	1.703
740.19	1.702
740.38	1.701
740.57	1.708
740.76	1.710
740.96	1.712
741.15	1.715
741.34	1.720
741.53	1.724
741.72	1.723
741.92	1.724
742.11	1.727
742.30	1.725
742.49	1.726
742.68	1.729
742.88	1.733
743.07	1.732
743.26	1.734
743.45	1.737
743.64	1.740
743.84	1.744
744.03	1.743
744.22	1.746
744.41	1.748
744.60	1.746
744.79	1.745
744.99	1.743
745.18	1.742
745.37	1.739
745.56	1.736
745.75	1.735
745.94	1.739
746.14	1.733
746.33	1.733
746.52	1.730
746.71	1.730
746.90	1.726
747.09	1.727
747.28	1.726
747.48	1.726
747.67	1.726
747.86	1.727
748.05	1.723
748.24	1.717
748.43	1.715
748.62	1.716
748.82	1.715
749.01	1.718
749.20	1.717
749.39	1.717
749.58	1.713
749.77	1.714
749.96	1.709
750.16	1.715
750.35	1.717
750.54	1.714
750.73	1.711
750.92	1.712
751.11	1.714
751.30	1.713
751.49	1.709
751.68	1.706
751.88	1.702
752.07	1.705
752.26	1.710
752.45	1.711
752.64	1.709
752.83	1.709
753.02	1.706
753.21	1.707
753.40	1.707
753.60	1.715
753.79	1.716
753.98	1.717
754.17	1.715
754.36	1.716
754.55	1.716
754.74	1.719
754.93	1.717
755.12	1.719
755.31	1.721
755.50	1.725
755.70	1.729
755.89	1.732
756.08	1.732
756.27	1.731
756.46	1.734
756.65	1.737
756.84	1.742
757.03	1.743
757.22	1.740
757.41	1.743
757.60	1.736
757.79	1.734
757.98	1.736
758.17	1.737
758.36	1.735
758.56	1.738
758.75	1.739
758.94	1.738
759.13	1.736
759.32	1.734
759.51	1.731
759.70	1.726
759.89	1.728
760.08	1.727
760.27	1.731
760.46	1.730
760.65	1.723
760.84	1.722
761.03	1.722
761.22	1.725
761.41	1.726
761.60	1.728
761.79	1.728
761.98	1.727
762.17	1.727
762.36	1.726
762.55	1.730
762.74	1.727
762.93	1.728
763.12	1.728
763.31	1.727
763.50	1.730
763.69	1.731
763.88	1.727
764.07	1.725
764.26	1.725
764.45	1.726
764.64	1.733
764.83	1.731
765.02	1.734
765.21	1.734
765.40	1.733
765.59	1.735
765.78	1.737
765.97	1.736
766.16	1.734
766.35	1.733
766.54	1.729
766.73	1.731
766.92	1.733
767.11	1.734
767.30	1.733
767.49	1.735
767.68	1.735
767.87	1.738
768.06	1.741
768.25	1.737
768.44	1.733
768.63	1.734
768.82	1.734
769.01	1.730
769.20	1.729
769.39	1.728
769.58	1.725
769.77	1.724
769.96	1.727
770.15	1.727
770.34	1.728
770.53	1.732
770.72	1.732
770.91	1.729
771.10	1.723
771.29	1.727
771.47	1.727
771.66	1.730
771.85	1.729
772.04	1.728
772.23	1.729
772.42	1.735
772.61	1.733
772.80	1.734
772.99	1.733
773.18	1.731
773.37	1.731
773.56	1.729
773.75	1.730
773.94	1.726
774.13	1.729
774.31	1.730
774.50	1.725
774.69	1.723
774.88	1.725
775.07	1.728
775.26	1.727
775.45	1.724
775.64	1.726
775.83	1.730
776.02	1.732
776.21	1.731
776.40	1.728
776.58	1.729
776.77	1.731
776.96	1.734
777.15	1.739
777.34	1.745
777.53	1.748
777.72	1.747
777.91	1.747
778.10	1.747
778.28	1.746
778.47	1.751
778.66	1.749
778.85	1.747
779.04	1.746
779.23	1.747
779.42	1.752
779.61	1.746
779.79	1.743
779.98	1.740
780.17	1.742
780.36	1.743
780.55	1.745
780.74	1.743
780.93	1.740
781.12	1.738
781.30	1.736
781.49	1.732
781.68	1.732
781.87	1.735
782.06	1.734
782.25	1.734
782.44	1.731
782.62	1.736
782.81	1.741
783.00	1.744
783.19	1.744
783.38	1.741
783.57	1.743
783.75	1.739
783.94	1.739
784.13	1.738
784.32	1.736
784.51	1.735
784.70	1.735
784.88	1.739
785.07	1.735
785.26	1.734
785.45	1.740
785.64	1.745
785.83	1.742
786.01	1.743
786.20	1.744
786.39	1.748
786.58	1.747
786.77	1.745
786.95	1.744
787.14	1.741
787.33	1.737
787.52	1.735
787.71	1.738
787.90	1.737
788.08	1.738
788.27	1.740
788.46	1.736
788.65	1.734
788.84	1.731
789.02	1.731
789.21	1.731
789.40	1.730
789.59	1.726
789.77	1.728
789.96	1.726
790.15	1.721
790.34	1.718
790.53	1.718
790.71	1.717
790.90	1.719
791.09	1.722
791.28	1.724
791.46	1.729
791.65	1.731
791.84	1.735
792.03	1.734
792.22	1.732
792.40	1.736
792.59	1.736
792.78	1.734
792.97	1.738
793.15	1.741
793.34	1.739
793.53	1.742
793.72	1.742
793.90	1.743
794.09	1.748
794.28	1.751
794.47	1.751
794.65	1.748
794.84	1.747
795.03	1.744
795.22	1.748
795.40	1.746
795.59	1.747
795.78	1.746
795.97	1.747
796.15	1.745
796.34	1.746
796.53	1.752
796.71	1.756
796.90	1.755
797.09	1.752
797.28	1.753
797.46	1.750
797.65	1.751
797.84	1.755
798.02	1.756
798.21	1.752
798.40	1.751
798.59	1.752
798.77	1.752
798.96	1.756
799.15	1.753
799.33	1.756
799.52	1.757
799.71	1.754
799.90	1.756
800.08	1.756
800.27	1.759
800.46	1.757
800.64	1.757
800.83	1.755
801.02	1.759
801.20	1.758
801.39	1.759
801.58	1.756
801.76	1.751
801.95	1.752
802.14	1.753
802.32	1.752
802.51	1.754
802.70	1.756
802.88	1.753
803.07	1.752
803.26	1.751
803.44	1.751
803.63	1.756
803.82	1.755
804.00	1.758
804.19	1.755
804.38	1.756
804.56	1.758
804.75	1.760
804.94	1.755
805.12	1.756
805.31	1.754
805.50	1.756
805.68	1.758
805.87	1.758
806.06	1.757
806.24	1.758
806.43	1.761
806.62	1.759
806.80	1.762
806.99	1.766
807.17	1.766
807.36	1.762
807.55	1.759
807.73	1.757
807.92	1.756
808.11	1.755
808.29	1.751
808.48	1.751
808.66	1.750
808.85	1.753
809.04	1.754
809.22	1.755
809.41	1.754
809.59	1.753
809.78	1.751
809.97	1.753
810.15	1.752
810.34	1.751
810.53	1.754
810.71	1.752
810.90	1.749
811.08	1.751
811.27	1.751
811.45	1.751
811.64	1.751
811.83	1.753
812.01	1.751
812.20	1.752
812.38	1.750
812.57	1.751
812.76	1.750
812.94	1.750
813.13	1.749
813.31	1.748
813.50	1.751
813.68	1.755
813.87	1.757
814.06	1.758
814.24	1.752
814.43	1.750
814.61	1.753
814.80	1.755
814.98	1.753
815.17	1.755
815.36	1.754
815.54	1.756
815.73	1.754
815.91	1.754
816.10	1.756
816.28	1.753
816.47	1.752
816.65	1.751
816.84	1.754
817.03	1.756
817.21	1.756
817.40	1.754
817.58	1.753
817.77	1.749
817.95	1.750
818.14	1.753
818.32	1.754
818.51	1.750
818.69	1.750
818.88	1.757
819.06	1.758
819.25	1.760
819.43	1.760
819.62	1.759
819.80	1.759
819.99	1.755
820.18	1.762
820.36	1.763
820.55	1.765
820.73	1.761
820.92	1.764
821.10	1.764
821.29	1.766
821.47	1.763
821.66	1.768
821.84	1.768
822.03	1.767
822.21	1.765
822.40	1.769
822.58	1.764
822.77	1.757
822.95	1.756
823.14	1.755
823.32	1.757
823.50	1.758
823.69	1.760
823.87	1.761
824.06	1.757
824.24	1.758
824.43	1.758
824.61	1.759
824.80	1.757
824.98	1.755
825.17	1.756
825.35	1.757
825.54	1.753
825.72	1.752
825.91	1.753
826.09	1.756
826.28	1.754
826.46	1.758
826.64	1.758
826.83	1.759
827.01	1.758
827.20	1.756
827.38	1.760
827.57	1.758
827.75	1.759
827.94	1.759
828.12	1.756
828.31	1.757
828.49	1.759
828.67	1.759
828.86	1.762
829.04	1.758
829.23	1.756
829.41	1.756
829.60	1.754
829.78	1.756
829.96	1.755
830.15	1.755
830.33	1.757
830.52	1.759
830.70	1.757
830.88	1.757
831.07	1.760
831.25	1.758
831.44	1.759
831.62	1.760
831.81	1.760
831.99	1.762
832.17	1.760
832.36	1.756
832.54	1.752
832.73	1.751
832.91	1.753
833.09	1.756
833.28	1.756
833.46	1.755
833.65	1.755
833.83	1.753
834.01	1.751
834.20	1.750
834.38	1.748
834.56	1.749
834.75	1.747
834.93	1.748
835.12	1.748
835.30	1.751
835.48	1.753
835.67	1.756
835.85	1.759
836.03	1.759
836.22	1.763
836.40	1.763
836.59	1.768
836.77	1.764
836.95	1.765
837.14	1.766
837.32	1.770
837.50	1.772
837.69	1.774
837.87	1.773
838.05	1.776
838.24	1.776
838.42	1.780
838.60	1.782
838.79	1.779
838.97	1.777
839.15	1.776
839.34	1.770
839.52	1.768
839.70	1.765
839.89	1.767
840.07	1.767
840.25	1.774
840.44	1.774
840.62	1.775
840.80	1.773
840.99	1.772
841.17	1.771
841.35	1.769
841.54	1.769
841.72	1.772
841.90	1.766
842.09	1.764
842.27	1.762
842.45	1.763
842.64	1.761
842.82	1.763
843.00	1.758
843.19	1.760
843.37	1.765
843.55	1.766
843.73	1.765
843.92	1.763
844.10	1.763
844.28	1.762
844.47	1.760
844.65	1.760
844.83	1.761
845.01	1.758
845.20	1.757
845.38	1.760
845.56	1.763
845.75	1.764
845.93	1.768
846.11	1.770
846.29	1.768
846.48	1.770
846.66	1.768
846.84	1.774
847.02	1.778
847.21	1.775
847.39	1.768
847.57	1.769
847.76	1.775
847.94	1.767
848.12	1.764
848.30	1.766
848.49	1.768
848.67	1.769
848.85	1.772
849.03	1.773
849.22	1.772
849.40	1.768
849.58	1.768
849.76	1.765
849.95	1.761
850.13	1.763
850.31	1.765
850.49	1.767
850.67	1.765
850.86	1.766
851.04	1.768
851.22	1.772
851.40	1.769
851.59	1.765
851.77	1.771
851.95	1.776
852.13	1.772
852.31	1.771
852.50	1.774
852.68	1.778
852.86	1.777
853.04	1.779
853.23	1.776
853.41	1.777
853.59	1.779
853.77	1.781
853.95	1.784
854.14	1.784
854.32	1.784
854.50	1.786
854.68	1.776
854.86	1.776
855.04	1.778
855.23	1.774
855.41	1.773
855.59	1.770
855.77	1.767
855.95	1.773
856.14	1.777
856.32	1.773
856.50	1.769
856.68	1.770
856.86	1.769
857.04	1.774
857.23	1.773
857.41	1.774
857.59	1.770
857.77	1.768
857.95	1.768
858.13	1.765
858.32	1.762
858.50	1.768
858.68	1.764
858.86	1.766
859.04	1.774
859.22	1.778
859.41	1.778
859.59	1.780
859.77	1.779
859.95	1.775
860.13	1.776
860.31	1.777
860.49	1.777
860.68	1.774
860.86	1.775
861.04	1.776
861.22	1.770
861.40	1.775
861.58	1.772
861.76	1.773
861.94	1.774
862.13	1.777
862.31	1.779
862.49	1.779
862.67	1.777
862.85	1.776
863.03	1.774
863.21	1.775
863.39	1.774
863.57	1.773
863.76	1.774
863.94	1.773
864.12	1.773
864.30	1.773
864.48	1.774
864.66	1.772
864.84	1.777
865.02	1.780
865.20	1.780
865.38	1.786
865.57	1.784
865.75	1.786
865.93	1.783
866.11	1.778
866.29	1.781
866.47	1.778
866.65	1.776
866.83	1.774
867.01	1.775
867.19	1.769
867.37	1.770
867.55	1.773
867.73	1.774
867.92	1.771
868.10	1.774
868.28	1.776
868.46	1.775
868.64	1.765
868.82	1.763
869.00	1.763
869.18	1.760
869.36	1.759
869.54	1.759
869.72	1.760
869.90	1.763
870.08	1.765
870.26	1.767
870.44	1.765
870.62	1.766
870.80	1.767
870.98	1.769
871.16	1.770
871.34	1.767
871.53	1.770
871.71	1.771
871.89	1.764
872.07	1.765
872.25	1.770
872.43	1.774
872.61	1.776
872.79	1.771
872.97	1.773
873.15	1.773
873.33	1.775
873.51	1.773
873.69	1.774
873.87	1.776
874.05	1.775
874.23	1.775
874.41	1.775
874.59	1.772
874.77	1.774
874.95	1.776
875.13	1.776
875.31	1.774
875.49	1.773
875.67	1.776
875.85	1.775
876.03	1.771
876.21	1.769
876.39	1.771
876.57	1.775
876.75	1.776
876.93	1.778
877.11	1.775
877.29	1.781
877.47	1.778
877.65	1.769
877.82	1.772
878.00	1.773
878.18	1.774
878.36	1.775
878.54	1.778
878.72	1.774
878.90	1.772
879.08	1.771
879.26	1.773
879.44	1.773
879.62	1.770
879.80	1.771
879.98	1.772
880.16	1.770
880.34	1.770
880.52	1.770
880.70	1.771
880.88	1.772
881.06	1.765
881.24	1.767
881.42	1.772
881.59	1.772
881.77	1.772
881.95	1.771
882.13	1.772
882.31	1.770
882.49	1.774
882.67	1.781
882.85	1.781
883.03	1.782
883.21	1.786
883.39	1.788
883.57	1.788
883.75	1.788
883.92	1.790
884.10	1.789
884.28	1.789
884.46	1.785
884.64	1.784
884.82	1.786
885.00	1.785
885.18	1.788
885.36	1.785
885.54	1.786
885.71	1.787
885.89	1.785
886.07	1.783
886.25	1.780
886.43	1.776
886.61	1.779
886.79	1.779
886.97	1.776
887.15	1.775
887.32	1.775
887.50	1.775
887.68	1.775
887.86	1.775
888.04	1.775
888.22	1.772
888.40	1.775
888.57	1.773
888.75	1.773
888.93	1.771
889.11	1.774
889.29	1.775
889.47	1.777
889.65	1.779
889.82	1.776
890.00	1.778
890.18	1.777
890.36	1.776
890.54	1.774
890.72	1.779
890.90	1.779
891.07	1.782
891.25	1.784
891.43	1.785
891.61	1.786
891.79	1.785
891.97	1.788
892.14	1.788
892.32	1.789
892.50	1.789
892.68	1.788
892.86	1.786
893.03	1.786
893.21	1.784
893.39	1.786
893.57	1.784
893.75	1.787
893.93	1.791
894.10	1.792
894.28	1.792
894.46	1.787
894.64	1.788
894.82	1.786
894.99	1.784
895.17	1.782
895.35	1.784
895.53	1.784
895.71	1.786
895.88	1.782
896.06	1.785
896.24	1.786
896.42	1.784
896.59	1.785
896.77	1.786
896.95	1.788
897.13	1.790
897.31	1.798
897.48	1.795
897.66	1.790
897.84	1.795
898.02	1.796
898.19	1.798
898.37	1.797
898.55	1.798
898.73	1.800
898.91	1.800
899.08	1.795
899.26	1.795
899.44	1.796
899.62	1.797
899.79	1.799
899.97	1.798
900.15	1.799
900.33	1.797
900.50	1.796
900.68	1.793
900.86	1.788
901.04	1.785
901.21	1.789
901.39	1.790
901.57	1.788
901.74	1.788
901.92	1.787
902.10	1.786
902.28	1.783
902.45	1.784
902.63	1.784
902.81	1.786
902.99	1.789
903.16	1.789
903.34	1.790
903.52	1.785
903.69	1.783
903.87	1.785
904.05	1.786
904.22	1.788
904.40	1.789
904.58	1.791
904.76	1.789
904.93	1.785
905.11	1.783
905.29	1.781
905.46	1.782
905.64	1.783
905.82	1.782
905.99	1.782
906.17	1.786
906.35	1.784
906.53	1.783
906.70	1.781
906.88	1.781
907.06	1.781
907.23	1.782
907.41	1.785
907.59	1.786
907.76	1.786
907.94	1.787
908.12	1.786
908.29	1.786
908.47	1.784
908.65	1.784
908.82	1.788
909.00	1.786
909.18	1.783
909.35	1.779
909.53	1.784
909.71	1.786
909.88	1.783
910.06	1.786
910.23	1.785
910.41	1.788
910.59	1.786
910.76	1.786
910.94	1.789
911.12	1.788
911.29	1.788
911.47	1.790
911.65	1.788
911.82	1.791
912.00	1.790
912.17	1.798
912.35	1.799
912.53	1.795
912.70	1.796
912.88	1.799
913.06	1.803
913.23	1.800
913.41	1.799
913.58	1.796
913.76	1.797
913.94	1.800
914.11	1.796
914.29	1.794
914.46	1.795
914.64	1.795
914.82	1.792
914.99	1.790
915.17	1.789
915.34	1.791
915.52	1.792
915.70	1.795
915.87	1.787
916.05	1.787
916.22	1.788
916.40	1.787
916.57	1.783
916.75	1.785
916.93	1.785
917.10	1.782
917.28	1.782
917.45	1.781
917.63	1.783
917.80	1.782
917.98	1.786
918.16	1.786
918.33	1.786
918.51	1.789
918.68	1.790
918.86	1.786
919.03	1.785
919.21	1.784
919.39	1.782
919.56	1.782
919.74	1.781
919.91	1.780
920.09	1.782
920.26	1.784
920.44	1.783
920.61	1.781
920.79	1.788
920.96	1.786
921.14	1.786
921.31	1.777
921.49	1.780
921.67	1.782
921.84	1.782
922.02	1.779
922.19	1.777
922.37	1.779
922.54	1.783
922.72	1.781
922.89	1.780
923.07	1.782
923.24	1.784
923.42	1.789
923.59	1.791
923.77	1.790
923.94	1.784
924.12	1.780
924.29	1.783
924.47	1.781
924.64	1.788
924.82	1.787
924.99	1.797
925.17	1.804
925.34	1.800
925.52	1.797
925.69	1.795
925.87	1.793
926.04	1.793
926.22	1.794
926.39	1.793
926.57	1.791
926.74	1.792
926.91	1.790
927.09	1.790
927.26	1.792
927.44	1.794
927.61	1.802
927.79	1.804
927.96	1.804
928.14	1.806
928.31	1.806
928.49	1.808
928.66	1.805
928.84	1.794
929.01	1.797
929.18	1.800
929.36	1.803
929.53	1.807
929.71	1.809
929.88	1.813
930.06	1.815
930.23	1.819
930.41	1.817
930.58	1.823
930.75	1.817
930.93	1.815
931.10	1.812
931.28	1.805
931.45	1.805
931.63	1.805
931.80	1.804
931.97	1.796
932.15	1.797
932.32	1.796
932.50	1.803
932.67	1.801
932.84	1.796
933.02	1.792
933.19	1.791
933.37	1.788
933.54	1.781
933.71	1.777
933.89	1.778
934.06	1.775
934.24	1.774
934.41	1.776
934.58	1.780
934.76	1.784
934.93	1.793
935.11	1.793
935.28	1.793
935.45	1.792
935.63	1.795
935.80	1.794
935.98	1.796
936.15	1.796
936.32	1.796
936.50	1.802
936.67	1.810
936.84	1.809
937.02	1.806
937.19	1.813
937.36	1.816
937.54	1.810
937.71	1.814
937.89	1.816
938.06	1.819
938.23	1.816
938.41	1.811
938.58	1.806
938.75	1.806
938.93	1.807
939.10	1.807
939.27	1.812
939.45	1.809
939.62	1.810
939.79	1.804
939.97	1.804
940.14	1.806
940.31	1.801
940.49	1.803
940.66	1.807
940.83	1.805
941.01	1.808
941.18	1.808
941.35	1.805
941.53	1.802
941.70	1.795
941.87	1.790
942.05	1.793
942.22	1.791
942.39	1.797
942.57	1.795
942.74	1.799
942.91	1.795
943.08	1.792
943.26	1.791
943.43	1.796
943.60	1.796
943.78	1.792
943.95	1.795
944.12	1.791
944.29	1.788
944.47	1.791
944.64	1.786
944.81	1.795
944.99	1.796
945.16	1.798
945.33	1.804
945.50	1.809
945.68	1.804
945.85	1.812
946.02	1.803
946.20	1.801
946.37	1.794
946.54	1.794
946.71	1.799
946.89	1.793
947.06	1.790
947.23	1.795
947.40	1.791
947.58	1.792
947.75	1.796
947.92	1.797
948.09	1.784
948.27	1.785
948.44	1.777
948.61	1.779
948.78	1.777
948.96	1.767
949.13	1.766
949.30	1.771
949.47	1.769
949.65	1.772
949.82	1.772
949.99	1.775
950.16	1.772
950.33	1.777
950.51	1.777
950.68	1.779
950.85	1.781
951.02	1.790
951.20	1.790
951.37	1.793
951.54	1.795
951.71	1.805
951.88	1.807
952.06	1.819
952.23	1.822
952.40	1.820
952.57	1.830
952.74	1.832
952.92	1.831
953.09	1.830
953.26	1.837
953.43	1.840
953.60	1.841
953.77	1.837
953.95	1.832
954.12	1.843
954.29	1.835
954.46	1.825
954.63	1.831
954.81	1.835
954.98	1.831
955.15	1.836
955.32	1.841
955.49	1.842
955.66	1.834
955.84	1.832
956.01	1.842
956.18	1.842
956.35	1.842
956.52	1.837
956.69	1.837
956.87	1.835
957.04	1.841
957.21	1.843
957.38	1.858
957.55	1.851
957.72	1.843
957.89	1.850
958.07	1.854
958.24	1.849
958.41	1.843
958.58	1.830
958.75	1.823
958.92	1.811
959.09	1.822
959.26	1.814
959.44	1.820
959.61	1.813
959.78	1.809
959.95	1.812
960.12	1.820
960.29	1.819
960.46	1.817
960.63	1.815
960.81	1.809
960.98	1.805
961.15	1.805
961.32	1.802
961.49	1.802
961.66	1.803
961.83	1.796
962.00	1.787
962.17	1.805
962.34	1.811
962.52	1.814
962.69	1.797
962.86	1.803
963.03	1.800
963.20	1.803
963.37	1.799
963.54	1.794
963.71	1.788
963.88	1.791
964.05	1.793
964.22	1.778
964.39	1.779
964.56	1.777
964.74	1.774
964.91	1.787
965.08	1.787
965.25	1.788
965.42	1.790
965.59	1.801
965.76	1.793
965.93	1.784
966.10	1.787
966.27	1.789
966.44	1.789
966.61	1.781
966.78	1.777
966.95	1.783
967.12	1.787
967.29	1.792
967.46	1.790
967.63	1.788
967.80	1.796
967.97	1.803
968.14	1.811
968.32	1.815
968.49	1.811
968.66	1.813
968.83	1.817
969.00	1.817
969.17	1.825
969.34	1.826
969.51	1.828
969.68	1.817
969.85	1.819
970.02	1.815
970.19	1.832
970.36	1.836
970.53	1.834
970.70	1.831
970.87	1.840
971.04	1.846
971.21	1.848
971.38	1.848
971.55	1.846
971.72	1.835
971.89	1.832
972.06	1.836
972.23	1.837
972.40	1.837
972.57	1.844
972.74	1.833
972.91	1.827
973.07	1.827
973.24	1.844
973.41	1.849
973.58	1.844
973.75	1.836
973.92	1.831
974.09	1.845
974.26	1.848
974.43	1.833
974.60	1.835
974.77	1.837
974.94	1.840
975.11	1.843
975.28	1.844
975.45	1.853
975.62	1.850
975.79	1.844
975.96	1.833
976.13	1.823
976.30	1.821
976.47	1.838
976.64	1.834
976.80	1.837
976.97	1.840
977.14	1.844
977.31	1.835
977.48	1.849
977.65	1.833
977.82	1.837
977.99	1.838
978.16	1.830
978.33	1.828
978.50	1.826
978.67	1.818
978.83	1.817
979.00	1.804
979.17	1.799
979.34	1.804
979.51	1.811
979.68	1.823
979.85	1.827
980.02	1.815
980.19	1.819
980.36	1.810
980.52	1.809
980.69	1.808
980.86	1.816
981.03	1.809
981.20	1.806
981.37	1.813
981.54	1.807
981.71	1.801
981.88	1.804
982.04	1.812
982.21	1.827
982.38	1.826
982.55	1.841
982.72	1.859
982.89	1.859
983.06	1.861
983.22	1.849
983.39	1.842
983.56	1.846
983.73	1.838
983.90	1.844
984.07	1.827
984.24	1.851
984.40	1.841
984.57	1.842
984.74	1.846
984.91	1.843
985.08	1.848
985.25	1.856
985.41	1.847
985.58	1.845
985.75	1.831
985.92	1.841
986.09	1.840
986.26	1.846
986.42	1.842
986.59	1.834
986.76	1.836
986.93	1.850
987.10	1.854
987.27	1.856
987.43	1.862
987.60	1.867
987.77	1.835
987.94	1.837
988.11	1.822
988.27	1.834
988.44	1.824
988.61	1.830
988.78	1.835
988.95	1.828
989.11	1.807
989.28	1.815
989.45	1.836
989.62	1.825
989.79	1.808
989.95	1.797
990.12	1.794
990.29	1.798
990.46	1.788
990.62	1.780
990.79	1.789
990.96	1.783
991.13	1.784
991.30	1.802
991.46	1.820
991.63	1.823
991.80	1.809
991.97	1.811
992.13	1.820
992.30	1.810
992.47	1.821
992.64	1.838
992.80	1.838
992.97	1.816
993.14	1.813
993.31	1.796
993.47	1.826
993.64	1.843
993.81	1.865
993.98	1.876
994.14	1.878
994.31	1.885
994.48	1.865
994.64	1.881
994.81	1.869
994.98	1.857
995.15	1.865
995.31	1.872
995.48	1.874
995.65	1.869
995.82	1.883
995.98	1.886
996.15	1.909
996.32	1.909
996.48	1.897
996.65	1.919
996.82	1.944
996.99	1.924
997.15	1.902
997.32	1.870
997.49	1.886
997.65	1.893
997.82	1.897
997.99	1.935
998.15	1.938
998.32	1.949
998.49	1.926
998.65	1.945
998.82	1.926
998.99	1.926
999.15	1.937
999.32	1.923
999.49	1.901
999.65	1.887
999.82	1.896
999.99	1.890
1000.15	1.870
1000.32	1.880
1000.49	1.881
1000.65	1.907
1000.82	1.902
1000.99	1.874
1001.15	1.863
1001.32	1.854
1001.49	1.842
1001.65	1.817
1001.82	1.818
1001.99	1.841
1002.15	1.828
1002.32	1.859
1002.49	1.852
1002.65	1.827
1002.82	1.853
1002.99	1.883
1003.15	1.888
1003.32	1.870
1003.48	1.880
1003.65	1.890
1003.82	1.871
1003.98	1.861
1004.15	1.840
1004.32	1.856
1004.48	1.876
1004.65	1.900
1004.81	1.915
1004.98	1.904
1005.15	1.939
1005.31	1.946
1005.48	1.950
1005.64	1.966
1005.81	1.966
1005.98	1.967
1006.14	1.973
1006.31	1.960
1006.47	1.923
1006.64	1.930
1006.81	1.936
1006.97	1.933
1007.14	1.919
1007.30	1.932
1007.47	1.948
1007.63	1.939
1007.80	1.931
1007.97	1.927
1008.13	1.892
1008.30	1.878
1008.46	1.890
1008.63	1.872
1008.79	1.840
1008.96	1.833
1009.13	1.843
1009.29	1.836
1009.46	1.850
1009.62	1.849
1009.79	1.831
1009.95	1.859
1010.12	1.837
1010.28	1.858
1010.45	1.867
1010.62	1.864
1010.78	1.842
1010.95	1.853
1011.11	1.877
1011.28	1.869
1011.44	1.860
1011.61	1.868
1011.77	1.856
1011.94	1.854
1012.10	1.874
1012.27	1.917
1012.43	1.919
1012.60	1.900
1012.76	1.906
1012.93	1.903
1013.10	1.902
1013.26	1.921
1013.43	1.906
1013.59	1.899
1013.76	1.867
1013.92	1.852
1014.09	1.867
1014.25	1.861
1014.42	1.866
1014.58	1.855
1014.75	1.867
1014.91	1.876
1015.08	1.885
1015.24	1.879
1015.41	1.854
1015.57	1.844
1015.73	1.847
1015.90	1.852
1016.06	1.868
1016.23	1.844
1016.39	1.865
1016.56	1.889
1016.72	1.866
1016.89	1.889
1017.05	1.903
1017.22	1.940
1017.38	1.956
1017.55	1.968
1017.71	1.996
1017.88	1.983
1018.04	2.004
1018.21	2.012
1018.37	1.969
1018.53	1.990
1018.70	2.017
1018.86	2.046
1019.03	1.995
1019.19	1.992
1019.36	2.001
1019.52	1.972
1019.69	1.989
1019.85	1.941
1020.01	1.919
1020.18	1.916
1020.34	1.885
1020.51	1.867
1020.67	1.881
1020.84	1.879
1021.00	1.858
1021.16	1.835
1021.33	1.827
1021.49	1.815
1021.66	1.803
1021.82	1.818
1021.98	1.804
1022.15	1.832
1022.31	1.834
1022.48	1.870
1022.64	1.850
1022.80	1.813
1022.97	1.781
1023.13	1.777
1023.30	1.779
1023.46	1.790
1023.62	1.771
1023.79	1.786
1023.95	1.799
1024.12	1.759
1024.28	1.779
1024.44	1.800
1024.61	1.796
1024.77	1.801
1024.93	1.794
1025.10	1.805
1025.26	1.811
1025.43	1.816
1025.59	1.799
1025.75	1.801
1025.92	1.781
1026.08	1.766
1026.24	1.763
1026.41	1.788
1026.57	1.815
1026.73	1.807
1026.90	1.829
1027.06	1.891
1027.23	1.874
1027.39	1.912
1027.55	1.931
1027.72	1.940
1027.88	1.946
1028.04	2.010
1028.21	1.984
1028.37	2.011
1028.53	1.983
1028.70	1.971
1028.86	1.962
1029.02	1.944
1029.19	1.921
1029.35	1.943
1029.51	1.984
1029.67	2.024
1029.84	2.053
1030.00	2.046
1030.16	2.080
1030.33	1.993
1030.49	1.910
1030.65	1.934
1030.82	1.895
1030.98	1.944
1031.14	1.875
1031.31	1.874
1031.47	1.909
1031.63	1.930
1031.79	1.899
1031.96	1.891
1032.12	1.915
1032.28	1.957
1032.45	1.922
1032.61	1.938
1032.77	1.924
1032.93	1.899
1033.10	1.889
1033.26	1.881
1033.42	1.847
1033.58	1.857
1033.75	1.880
1033.91	1.931
1034.07	1.931
1034.24	1.916
1034.40	1.864
1034.56	1.873
1034.72	1.888
1034.89	1.827
1035.05	1.793
1035.21	1.778
1035.37	1.807
1035.54	1.800
1035.70	1.772
1035.86	1.856
1036.02	1.810
1036.19	1.804
1036.35	1.830
1036.51	1.834
1036.67	1.837
1036.83	1.823
1037.00	1.796
1037.16	1.792
1037.32	1.794
1037.48	1.815
1037.65	1.808
1037.81	1.832
1037.97	1.827
1038.13	1.777
1038.29	1.798
1038.46	1.830
1038.62	1.843
1038.78	1.846
1038.94	1.819
1039.10	1.825
1039.27	1.772
1039.43	1.812
1039.59	1.848
1039.75	1.837
1039.91	1.804
1040.08	1.785
1040.24	1.822
1040.40	1.906
1040.56	1.917
1040.72	1.888
1040.89	1.816
1041.05	1.834
1041.21	1.826
1041.37	1.838
1041.53	1.865
1041.69	1.847
1041.86	1.879
1042.02	1.921
1042.18	1.864
1042.34	1.922
1042.50	1.935
1042.66	1.964
1042.83	2.068
1042.99	2.086
1043.15	2.079
1043.31	2.177
1043.47	2.294
1043.63	2.179
1043.79	2.032
1043.96	1.983
1044.12	1.988
1044.28	2.104
1044.44	2.112
1044.60	2.167
1044.76	2.204
1044.92	2.233
1045.09	2.227
1045.25	2.055
1045.41	1.730
1045.57	1.430
1045.73	1.548
1045.89	-0.000
1046.05	2.113
1046.21	-0.000
1046.38	1.713
1046.54	-0.000
1046.70	1.743
1046.86	1.325
>>>>>End Processed Spectral Data<<<<<
