SpectraSuite Data File
++++++++++++++++++++++++++++++++++++
Date: Mon May 06 14:15:19 CDT 2013
User: Students
Dark Spectrum Present: Yes
Reference Spectrum Present: Yes
Number of Sampled Component Spectra: 1
Spectrometers: USB4H00887
Integration Time (usec): 25000 (USB4H00887)
Spectra Averaged: 10 (USB4H00887)
Boxcar Smoothing: 10 (USB4H00887)
Correct for Electrical Dark: No (USB4H00887)
Strobe/Lamp Enabled: No (USB4H00887)
Correct for Detector Non-linearity: No (USB4H00887)
Correct for Stray Light: No (USB4H00887)
Number of Pixels in Processed Spectrum: 3648
>>>>>Begin Processed Spectral Data<<<<<
345.83	1.778
346.05	1.778
346.26	1.778
346.48	-0.000
346.70	0.218
346.92	0.167
347.14	1.394
347.35	0.316
347.57	-0.000
347.79	-0.102
348.01	0.530
348.23	0.785
348.44	0.672
348.66	1.315
348.88	1.218
349.10	1.521
349.32	-0.000
349.53	-0.000
349.75	-0.000
349.97	-0.000
350.19	-0.000
350.41	-0.000
350.62	-0.000
350.84	-0.000
351.06	-0.000
351.28	-0.000
351.50	-0.000
351.71	-0.000
351.93	-0.000
352.15	-0.000
352.37	-0.000
352.58	-0.000
352.80	-0.000
353.02	-0.000
353.24	-0.000
353.46	-0.000
353.67	-0.000
353.89	-0.000
354.11	-0.000
354.33	-0.000
354.54	-0.000
354.76	-0.000
354.98	-0.000
355.20	-0.000
355.41	-0.000
355.63	-0.000
355.85	-0.000
356.07	-0.000
356.28	-0.000
356.50	-0.000
356.72	-0.000
356.94	-0.000
357.15	-0.000
357.37	-0.000
357.59	-0.000
357.81	1.807
358.02	1.426
358.24	1.634
358.46	1.643
358.68	0.980
358.89	1.036
359.11	1.800
359.33	1.370
359.55	0.805
359.76	0.880
359.98	1.238
360.20	-0.000
360.42	-0.000
360.63	1.373
360.85	1.232
361.07	1.271
361.29	1.114
361.50	0.947
361.72	1.063
361.94	1.079
362.15	1.416
362.37	-0.000
362.59	-0.000
362.81	-0.000
363.02	-0.000
363.24	-0.000
363.46	-0.000
363.68	-0.000
363.89	-0.000
364.11	-0.000
364.33	-0.000
364.54	-0.000
364.76	-0.000
364.98	-0.000
365.20	-0.000
365.41	-0.000
365.63	-0.000
365.85	-0.000
366.06	-0.000
366.28	-0.000
366.50	-0.000
366.71	-0.000
366.93	-0.000
367.15	-0.000
367.37	-0.000
367.58	-0.000
367.80	-0.000
368.02	-0.000
368.23	-0.000
368.45	-0.000
368.67	-0.000
368.88	-0.000
369.10	-0.000
369.32	-0.000
369.53	-0.000
369.75	-0.000
369.97	-0.000
370.19	-0.000
370.40	-0.000
370.62	-0.000
370.84	-0.000
371.05	1.441
371.27	-0.000
371.49	-0.000
371.70	-0.000
371.92	-0.000
372.14	-0.000
372.35	1.312
372.57	1.061
372.79	1.102
373.00	1.079
373.22	-0.000
373.44	1.536
373.65	2.070
373.87	-0.000
374.09	1.559
374.30	0.929
374.52	1.279
374.74	-0.000
374.95	1.533
375.17	-0.000
375.39	-0.000
375.60	-0.000
375.82	-0.000
376.04	-0.000
376.25	-0.000
376.47	-0.000
376.68	-0.000
376.90	-0.000
377.12	-0.000
377.33	-0.000
377.55	-0.000
377.77	-0.000
377.98	-0.000
378.20	-0.000
378.42	-0.000
378.63	-0.000
378.85	-0.000
379.07	-0.000
379.28	-0.000
379.50	-0.000
379.71	-0.000
379.93	-0.000
380.15	-0.000
380.36	-0.000
380.58	-0.000
380.80	-0.000
381.01	-0.000
381.23	-0.000
381.44	-0.000
381.66	-0.000
381.88	-0.000
382.09	-0.000
382.31	-0.000
382.53	-0.000
382.74	-0.000
382.96	-0.000
383.17	-0.000
383.39	-0.000
383.61	-0.000
383.82	-0.000
384.04	-0.000
384.25	-0.000
384.47	-0.000
384.69	-0.000
384.90	-0.000
385.12	-0.000
385.33	-0.000
385.55	-0.000
385.77	-0.000
385.98	-0.000
386.20	-0.000
386.41	-0.000
386.63	-0.000
386.85	-0.000
387.06	-0.000
387.28	-0.000
387.49	-0.000
387.71	-0.000
387.93	-0.000
388.14	-0.000
388.36	-0.000
388.57	1.560
388.79	1.384
389.01	1.167
389.22	1.311
389.44	1.450
389.65	1.484
389.87	2.041
390.08	1.626
390.30	1.450
390.52	1.447
390.73	1.435
390.95	1.633
391.16	1.327
391.38	1.464
391.59	-0.000
391.81	2.192
392.03	-0.000
392.24	-0.000
392.46	-0.000
392.67	-0.000
392.89	-0.000
393.10	-0.000
393.32	-0.000
393.53	-0.000
393.75	-0.000
393.97	-0.000
394.18	-0.000
394.40	-0.000
394.61	-0.000
394.83	-0.000
395.04	-0.000
395.26	1.877
395.47	-0.000
395.69	-0.000
395.91	-0.000
396.12	1.579
396.34	1.500
396.55	1.289
396.77	1.169
396.98	1.182
397.20	1.259
397.41	1.393
397.63	1.587
397.84	1.951
398.06	1.991
398.27	-0.000
398.49	2.341
398.71	-0.000
398.92	-0.000
399.14	-0.000
399.35	-0.000
399.57	-0.000
399.78	-0.000
400.00	-0.000
400.21	-0.000
400.43	-0.000
400.64	-0.000
400.86	-0.000
401.07	-0.000
401.29	-0.000
401.50	-0.000
401.72	-0.000
401.93	-0.000
402.15	-0.000
402.36	1.816
402.58	1.764
402.79	-0.000
403.01	2.172
403.22	1.472
403.44	1.727
403.65	1.627
403.87	1.815
404.08	1.533
404.30	1.891
404.51	1.703
404.73	-0.000
404.94	2.309
405.16	-0.000
405.37	-0.000
405.59	-0.000
405.80	-0.000
406.02	-0.000
406.23	-0.000
406.45	-0.000
406.66	-0.000
406.88	-0.000
407.09	-0.000
407.31	-0.000
407.52	-0.000
407.74	-0.000
407.95	-0.000
408.17	-0.000
408.38	-0.000
408.60	-0.000
408.81	-0.000
409.03	-0.000
409.24	-0.000
409.45	-0.000
409.67	-0.000
409.88	-0.000
410.10	-0.000
410.31	-0.000
410.53	-0.000
410.74	-0.000
410.96	-0.000
411.17	-0.000
411.39	-0.000
411.60	-0.000
411.82	-0.000
412.03	-0.000
412.24	-0.000
412.46	-0.000
412.67	-0.000
412.89	-0.000
413.10	-0.000
413.32	-0.000
413.53	-0.000
413.75	-0.000
413.96	-0.000
414.17	-0.000
414.39	-0.000
414.60	-0.000
414.82	-0.000
415.03	1.969
415.25	-0.000
415.46	-0.000
415.68	-0.000
415.89	-0.000
416.10	-0.000
416.32	-0.000
416.53	1.881
416.75	1.763
416.96	1.836
417.18	2.044
417.39	3.804
417.60	3.209
417.82	-0.000
418.03	-0.000
418.25	-0.000
418.46	-0.000
418.67	-0.000
418.89	-0.000
419.10	-0.000
419.32	-0.000
419.53	-0.000
419.75	-0.000
419.96	-0.000
420.17	-0.000
420.39	-0.000
420.60	-0.000
420.82	-0.000
421.03	-0.000
421.24	-0.000
421.46	-0.000
421.67	-0.000
421.89	-0.000
422.10	-0.000
422.31	-0.000
422.53	-0.000
422.74	-0.000
422.96	-0.000
423.17	-0.000
423.38	-0.000
423.60	-0.000
423.81	-0.000
424.03	2.593
424.24	2.586
424.45	-0.000
424.67	2.825
424.88	-0.000
425.09	-0.000
425.31	-0.000
425.52	-0.000
425.74	-0.000
425.95	-0.000
426.16	-0.000
426.38	-0.000
426.59	-0.000
426.80	-0.000
427.02	-0.000
427.23	-0.000
427.45	-0.000
427.66	-0.000
427.87	-0.000
428.09	-0.000
428.30	-0.000
428.51	-0.000
428.73	-0.000
428.94	-0.000
429.15	-0.000
429.37	-0.000
429.58	-0.000
429.79	-0.000
430.01	-0.000
430.22	-0.000
430.44	-0.000
430.65	-0.000
430.86	-0.000
431.08	-0.000
431.29	-0.000
431.50	-0.000
431.72	-0.000
431.93	-0.000
432.14	-0.000
432.36	-0.000
432.57	-0.000
432.78	-0.000
433.00	-0.000
433.21	2.472
433.42	2.774
433.64	1.966
433.85	1.838
434.06	1.802
434.28	2.243
434.49	2.583
434.70	2.052
434.92	1.819
435.13	2.059
435.34	1.866
435.56	1.879
435.77	1.661
435.98	1.718
436.20	1.610
436.41	1.741
436.62	1.659
436.83	1.591
437.05	1.661
437.26	1.569
437.47	1.614
437.69	1.624
437.90	1.777
438.11	1.933
438.33	1.856
438.54	1.812
438.75	1.890
438.97	1.796
439.18	1.810
439.39	1.866
439.60	1.777
439.82	1.873
440.03	1.878
440.24	2.141
440.46	1.943
440.67	2.043
440.88	2.076
441.10	2.045
441.31	2.169
441.52	1.903
441.73	2.215
441.95	2.026
442.16	1.931
442.37	1.800
442.58	1.744
442.80	1.876
443.01	1.872
443.22	1.861
443.44	1.946
443.65	1.970
443.86	2.048
444.07	1.959
444.29	1.837
444.50	1.967
444.71	1.849
444.92	1.890
445.14	1.957
445.35	1.873
445.56	1.820
445.78	1.749
445.99	1.766
446.20	1.715
446.41	1.806
446.63	1.846
446.84	1.798
447.05	1.728
447.26	1.601
447.48	1.623
447.69	1.586
447.90	1.549
448.11	1.567
448.33	1.624
448.54	1.612
448.75	1.682
448.96	1.596
449.18	1.661
449.39	1.714
449.60	1.791
449.81	1.807
450.03	1.886
450.24	1.823
450.45	1.923
450.66	1.834
450.87	1.789
451.09	1.873
451.30	1.963
451.51	2.033
451.72	2.121
451.94	2.124
452.15	2.162
452.36	2.134
452.57	2.056
452.78	1.895
453.00	2.123
453.21	2.403
453.42	2.678
453.63	2.256
453.85	2.141
454.06	1.911
454.27	1.938
454.48	2.020
454.69	2.319
454.91	2.349
455.12	2.548
455.33	-0.000
455.54	2.264
455.75	2.095
455.97	2.242
456.18	2.474
456.39	2.306
456.60	2.334
456.81	2.630
457.03	2.458
457.24	2.190
457.45	2.076
457.66	1.985
457.87	2.043
458.09	2.051
458.30	2.078
458.51	2.152
458.72	2.234
458.93	2.129
459.15	2.064
459.36	1.995
459.57	1.979
459.78	1.947
459.99	2.003
460.20	2.067
460.42	2.050
460.63	1.987
460.84	1.977
461.05	1.908
461.26	1.884
461.47	1.898
461.69	1.913
461.90	1.807
462.11	1.708
462.32	1.668
462.53	1.636
462.74	1.604
462.96	1.569
463.17	1.536
463.38	1.539
463.59	1.498
463.80	1.503
464.01	1.495
464.23	1.489
464.44	1.511
464.65	1.494
464.86	1.479
465.07	1.521
465.28	1.522
465.49	1.548
465.71	1.552
465.92	1.581
466.13	1.607
466.34	1.622
466.55	1.669
466.76	1.696
466.97	1.753
467.19	1.789
467.40	1.840
467.61	1.873
467.82	1.853
468.03	1.955
468.24	1.980
468.45	1.969
468.66	1.940
468.88	1.931
469.09	1.889
469.30	1.879
469.51	1.825
469.72	1.885
469.93	1.834
470.14	1.790
470.35	1.818
470.57	1.844
470.78	1.854
470.99	1.843
471.20	1.796
471.41	1.789
471.62	1.789
471.83	1.741
472.04	1.730
472.25	1.726
472.47	1.708
472.68	1.701
472.89	1.717
473.10	1.723
473.31	1.724
473.52	1.730
473.73	1.742
473.94	1.703
474.15	1.686
474.36	1.695
474.57	1.723
474.79	1.702
475.00	1.713
475.21	1.707
475.42	1.706
475.63	1.717
475.84	1.705
476.05	1.708
476.26	1.752
476.47	1.745
476.68	1.784
476.89	1.811
477.10	1.824
477.32	1.780
477.53	1.794
477.74	1.779
477.95	1.781
478.16	1.783
478.37	1.837
478.58	1.809
478.79	1.815
479.00	1.805
479.21	1.790
479.42	1.745
479.63	1.756
479.84	1.732
480.05	1.725
480.26	1.735
480.47	1.714
480.69	1.687
480.90	1.697
481.11	1.682
481.32	1.645
481.53	1.633
481.74	1.660
481.95	1.636
482.16	1.641
482.37	1.645
482.58	1.630
482.79	1.612
483.00	1.615
483.21	1.607
483.42	1.604
483.63	1.598
483.84	1.621
484.05	1.621
484.26	1.638
484.47	1.646
484.68	1.639
484.89	1.655
485.10	1.658
485.31	1.668
485.52	1.657
485.73	1.647
485.94	1.661
486.15	1.637
486.37	1.659
486.58	1.675
486.79	1.688
487.00	1.688
487.21	1.700
487.42	1.703
487.63	1.705
487.84	1.687
488.05	1.687
488.26	1.658
488.47	1.657
488.68	1.656
488.89	1.657
489.10	1.648
489.31	1.640
489.52	1.643
489.73	1.657
489.94	1.651
490.15	1.667
490.36	1.652
490.57	1.664
490.78	1.667
490.99	1.638
491.20	1.631
491.41	1.636
491.62	1.638
491.83	1.652
492.04	1.649
492.25	1.668
492.45	1.678
492.66	1.700
492.87	1.687
493.08	1.689
493.29	1.706
493.50	1.705
493.71	1.724
493.92	1.717
494.13	1.687
494.34	1.696
494.55	1.705
494.76	1.706
494.97	1.715
495.18	1.704
495.39	1.711
495.60	1.714
495.81	1.714
496.02	1.696
496.23	1.687
496.44	1.684
496.65	1.690
496.86	1.685
497.07	1.682
497.28	1.699
497.49	1.684
497.70	1.663
497.91	1.671
498.12	1.671
498.32	1.670
498.53	1.685
498.74	1.690
498.95	1.692
499.16	1.705
499.37	1.684
499.58	1.684
499.79	1.693
500.00	1.703
500.21	1.711
500.42	1.715
500.63	1.716
500.84	1.715
501.05	1.714
501.26	1.715
501.46	1.717
501.67	1.726
501.88	1.753
502.09	1.761
502.30	1.767
502.51	1.752
502.72	1.777
502.93	1.775
503.14	1.780
503.35	1.784
503.56	1.781
503.77	1.790
503.97	1.803
504.18	1.816
504.39	1.816
504.60	1.825
504.81	1.840
505.02	1.847
505.23	1.858
505.44	1.851
505.65	1.860
505.86	1.865
506.07	1.865
506.27	1.878
506.48	1.876
506.69	1.858
506.90	1.854
507.11	1.863
507.32	1.865
507.53	1.869
507.74	1.872
507.95	1.878
508.15	1.899
508.36	1.877
508.57	1.861
508.78	1.857
508.99	1.855
509.20	1.835
509.41	1.824
509.62	1.828
509.82	1.821
510.03	1.821
510.24	1.826
510.45	1.813
510.66	1.797
510.87	1.797
511.08	1.804
511.29	1.825
511.49	1.814
511.70	1.810
511.91	1.813
512.12	1.802
512.33	1.790
512.54	1.788
512.75	1.803
512.95	1.823
513.16	1.815
513.37	1.815
513.58	1.815
513.79	1.827
514.00	1.833
514.20	1.832
514.41	1.826
514.62	1.834
514.83	1.832
515.04	1.835
515.25	1.828
515.46	1.844
515.66	1.828
515.87	1.837
516.08	1.826
516.29	1.837
516.50	1.844
516.71	1.849
516.91	1.848
517.12	1.840
517.33	1.836
517.54	1.846
517.75	1.840
517.95	1.858
518.16	1.856
518.37	1.845
518.58	1.845
518.79	1.854
519.00	1.847
519.20	1.861
519.41	1.858
519.62	1.871
519.83	1.873
520.04	1.891
520.24	1.862
520.45	1.861
520.66	1.849
520.87	1.843
521.08	1.853
521.28	1.847
521.49	1.846
521.70	1.853
521.91	1.847
522.12	1.854
522.32	1.862
522.53	1.858
522.74	1.870
522.95	1.877
523.16	1.885
523.36	1.879
523.57	1.860
523.78	1.852
523.99	1.853
524.20	1.849
524.40	1.846
524.61	1.854
524.82	1.865
525.03	1.875
525.23	1.880
525.44	1.872
525.65	1.878
525.86	1.892
526.06	1.878
526.27	1.881
526.48	1.880
526.69	1.887
526.90	1.887
527.10	1.880
527.31	1.877
527.52	1.873
527.73	1.873
527.93	1.899
528.14	1.904
528.35	1.902
528.56	1.895
528.76	1.899
528.97	1.903
529.18	1.908
529.39	1.897
529.59	1.894
529.80	1.905
530.01	1.916
530.22	1.915
530.42	1.923
530.63	1.923
530.84	1.927
531.05	1.915
531.25	1.915
531.46	1.918
531.67	1.924
531.88	1.925
532.08	1.934
532.29	1.920
532.50	1.923
532.70	1.927
532.91	1.928
533.12	1.930
533.33	1.940
533.53	1.924
533.74	1.915
533.95	1.924
534.15	1.916
534.36	1.897
534.57	1.891
534.78	1.890
534.98	1.888
535.19	1.875
535.40	1.864
535.60	1.865
535.81	1.856
536.02	1.852
536.23	1.856
536.43	1.858
536.64	1.853
536.85	1.854
537.05	1.850
537.26	1.858
537.47	1.848
537.67	1.848
537.88	1.864
538.09	1.866
538.30	1.874
538.50	1.870
538.71	1.884
538.92	1.881
539.12	1.878
539.33	1.870
539.54	1.871
539.74	1.879
539.95	1.885
540.16	1.899
540.36	1.906
540.57	1.905
540.78	1.902
540.98	1.910
541.19	1.920
541.40	1.919
541.60	1.916
541.81	1.913
542.02	1.903
542.22	1.894
542.43	1.900
542.64	1.887
542.84	1.888
543.05	1.880
543.26	1.893
543.46	1.887
543.67	1.902
543.88	1.898
544.08	1.895
544.29	1.891
544.50	1.882
544.70	1.876
544.91	1.864
545.12	1.862
545.32	1.865
545.53	1.852
545.74	1.860
545.94	1.858
546.15	1.858
546.35	1.868
546.56	1.861
546.77	1.863
546.97	1.866
547.18	1.864
547.39	1.867
547.59	1.852
547.80	1.856
548.01	1.846
548.21	1.846
548.42	1.845
548.62	1.849
548.83	1.855
549.04	1.861
549.24	1.868
549.45	1.867
549.65	1.859
549.86	1.862
550.07	1.860
550.27	1.864
550.48	1.861
550.69	1.854
550.89	1.865
551.10	1.861
551.30	1.850
551.51	1.854
551.72	1.861
551.92	1.865
552.13	1.858
552.33	1.874
552.54	1.887
552.75	1.884
552.95	1.876
553.16	1.868
553.36	1.869
553.57	1.860
553.78	1.863
553.98	1.875
554.19	1.884
554.39	1.884
554.60	1.875
554.80	1.879
555.01	1.879
555.22	1.883
555.42	1.884
555.63	1.890
555.83	1.893
556.04	1.890
556.25	1.891
556.45	1.901
556.66	1.884
556.86	1.882
557.07	1.883
557.27	1.883
557.48	1.877
557.68	1.873
557.89	1.883
558.10	1.883
558.30	1.866
558.51	1.860
558.71	1.858
558.92	1.861
559.12	1.865
559.33	1.864
559.54	1.851
559.74	1.845
559.95	1.841
560.15	1.831
560.36	1.825
560.56	1.828
560.77	1.825
560.97	1.826
561.18	1.821
561.38	1.830
561.59	1.829
561.79	1.841
562.00	1.838
562.21	1.837
562.41	1.830
562.62	1.836
562.82	1.837
563.03	1.832
563.23	1.829
563.44	1.824
563.64	1.825
563.85	1.830
564.05	1.833
564.26	1.839
564.46	1.843
564.67	1.848
564.87	1.851
565.08	1.853
565.28	1.849
565.49	1.858
565.69	1.860
565.90	1.869
566.10	1.870
566.31	1.872
566.51	1.865
566.72	1.859
566.92	1.856
567.13	1.849
567.33	1.851
567.54	1.861
567.74	1.859
567.95	1.862
568.15	1.867
568.36	1.871
568.56	1.868
568.77	1.867
568.97	1.860
569.18	1.855
569.38	1.856
569.59	1.868
569.79	1.857
570.00	1.849
570.20	1.839
570.41	1.829
570.61	1.830
570.82	1.828
571.02	1.838
571.23	1.839
571.43	1.851
571.64	1.853
571.84	1.850
572.05	1.856
572.25	1.856
572.45	1.853
572.66	1.845
572.86	1.850
573.07	1.847
573.27	1.854
573.48	1.853
573.68	1.853
573.89	1.839
574.09	1.842
574.30	1.846
574.50	1.842
574.70	1.852
574.91	1.854
575.11	1.863
575.32	1.858
575.52	1.858
575.73	1.852
575.93	1.845
576.14	1.842
576.34	1.844
576.54	1.840
576.75	1.844
576.95	1.848
577.16	1.850
577.36	1.848
577.57	1.850
577.77	1.849
577.97	1.837
578.18	1.847
578.38	1.846
578.59	1.835
578.79	1.845
579.00	1.836
579.20	1.834
579.40	1.830
579.61	1.835
579.81	1.836
580.02	1.835
580.22	1.840
580.42	1.837
580.63	1.836
580.83	1.826
581.04	1.823
581.24	1.816
581.45	1.806
581.65	1.812
581.85	1.815
582.06	1.816
582.26	1.818
582.47	1.813
582.67	1.814
582.87	1.815
583.08	1.805
583.28	1.808
583.48	1.809
583.69	1.810
583.89	1.806
584.10	1.808
584.30	1.810
584.50	1.812
584.71	1.815
584.91	1.815
585.12	1.821
585.32	1.825
585.52	1.829
585.73	1.835
585.93	1.827
586.13	1.822
586.34	1.821
586.54	1.824
586.75	1.829
586.95	1.830
587.15	1.837
587.36	1.850
587.56	1.844
587.76	1.847
587.97	1.838
588.17	1.837
588.37	1.835
588.58	1.827
588.78	1.832
588.98	1.829
589.19	1.821
589.39	1.822
589.60	1.817
589.80	1.821
590.00	1.819
590.21	1.827
590.41	1.816
590.61	1.812
590.82	1.816
591.02	1.811
591.22	1.808
591.43	1.809
591.63	1.809
591.83	1.816
592.04	1.811
592.24	1.810
592.44	1.812
592.65	1.813
592.85	1.819
593.05	1.813
593.26	1.812
593.46	1.805
593.66	1.809
593.86	1.811
594.07	1.811
594.27	1.812
594.47	1.812
594.68	1.815
594.88	1.820
595.08	1.815
595.29	1.817
595.49	1.821
595.69	1.823
595.90	1.814
596.10	1.814
596.30	1.815
596.50	1.822
596.71	1.815
596.91	1.821
597.11	1.813
597.32	1.816
597.52	1.818
597.72	1.833
597.93	1.828
598.13	1.830
598.33	1.825
598.53	1.822
598.74	1.821
598.94	1.826
599.14	1.826
599.35	1.823
599.55	1.822
599.75	1.824
599.95	1.823
600.16	1.826
600.36	1.823
600.56	1.820
600.76	1.818
600.97	1.822
601.17	1.816
601.37	1.824
601.58	1.822
601.78	1.825
601.98	1.820
602.18	1.820
602.39	1.815
602.59	1.819
602.79	1.821
602.99	1.817
603.20	1.820
603.40	1.818
603.60	1.823
603.80	1.828
604.01	1.825
604.21	1.824
604.41	1.825
604.61	1.828
604.82	1.841
605.02	1.841
605.22	1.845
605.42	1.852
605.62	1.849
605.83	1.843
606.03	1.854
606.23	1.852
606.43	1.855
606.64	1.860
606.84	1.854
607.04	1.853
607.24	1.853
607.45	1.849
607.65	1.854
607.85	1.851
608.05	1.852
608.25	1.847
608.46	1.850
608.66	1.852
608.86	1.857
609.06	1.849
609.26	1.848
609.47	1.850
609.67	1.841
609.87	1.841
610.07	1.848
610.28	1.835
610.48	1.839
610.68	1.833
610.88	1.831
611.08	1.829
611.29	1.831
611.49	1.836
611.69	1.839
611.89	1.842
612.09	1.840
612.29	1.838
612.50	1.846
612.70	1.843
612.90	1.837
613.10	1.837
613.30	1.840
613.51	1.846
613.71	1.844
613.91	1.845
614.11	1.845
614.31	1.844
614.51	1.847
614.72	1.849
614.92	1.850
615.12	1.854
615.32	1.858
615.52	1.863
615.72	1.861
615.93	1.858
616.13	1.849
616.33	1.855
616.53	1.860
616.73	1.858
616.93	1.858
617.14	1.852
617.34	1.848
617.54	1.848
617.74	1.848
617.94	1.846
618.14	1.841
618.34	1.839
618.55	1.837
618.75	1.837
618.95	1.833
619.15	1.840
619.35	1.841
619.55	1.845
619.75	1.837
619.96	1.844
620.16	1.847
620.36	1.852
620.56	1.848
620.76	1.839
620.96	1.842
621.16	1.844
621.36	1.851
621.57	1.850
621.77	1.849
621.97	1.851
622.17	1.856
622.37	1.861
622.57	1.867
622.77	1.868
622.97	1.866
623.18	1.871
623.38	1.871
623.58	1.863
623.78	1.864
623.98	1.868
624.18	1.863
624.38	1.864
624.58	1.858
624.78	1.856
624.98	1.856
625.19	1.851
625.39	1.851
625.59	1.852
625.79	1.849
625.99	1.849
626.19	1.849
626.39	1.843
626.59	1.851
626.79	1.850
626.99	1.844
627.19	1.847
627.40	1.843
627.60	1.834
627.80	1.837
628.00	1.832
628.20	1.832
628.40	1.825
628.60	1.820
628.80	1.830
629.00	1.834
629.20	1.843
629.40	1.843
629.60	1.843
629.80	1.842
630.00	1.845
630.20	1.844
630.41	1.836
630.61	1.840
630.81	1.839
631.01	1.838
631.21	1.844
631.41	1.846
631.61	1.846
631.81	1.852
632.01	1.855
632.21	1.862
632.41	1.868
632.61	1.871
632.81	1.874
633.01	1.870
633.21	1.866
633.41	1.864
633.61	1.862
633.81	1.863
634.01	1.869
634.21	1.873
634.41	1.876
634.61	1.881
634.81	1.878
635.01	1.874
635.22	1.874
635.42	1.875
635.62	1.877
635.82	1.882
636.02	1.877
636.22	1.877
636.42	1.873
636.62	1.874
636.82	1.873
637.02	1.871
637.22	1.872
637.42	1.877
637.62	1.880
637.82	1.884
638.02	1.885
638.22	1.878
638.42	1.876
638.62	1.873
638.82	1.877
639.02	1.885
639.22	1.884
639.42	1.884
639.62	1.878
639.82	1.874
640.02	1.873
640.22	1.875
640.42	1.876
640.62	1.875
640.82	1.868
641.02	1.875
641.22	1.880
641.42	1.879
641.61	1.879
641.81	1.878
642.01	1.875
642.21	1.871
642.41	1.879
642.61	1.880
642.81	1.881
643.01	1.878
643.21	1.864
643.41	1.869
643.61	1.872
643.81	1.880
644.01	1.882
644.21	1.883
644.41	1.885
644.61	1.887
644.81	1.889
645.01	1.891
645.21	1.897
645.41	1.893
645.61	1.894
645.81	1.888
646.01	1.882
646.21	1.880
646.40	1.882
646.60	1.876
646.80	1.874
647.00	1.872
647.20	1.872
647.40	1.881
647.60	1.879
647.80	1.876
648.00	1.876
648.20	1.873
648.40	1.870
648.60	1.872
648.80	1.871
649.00	1.866
649.20	1.864
649.39	1.858
649.59	1.860
649.79	1.856
649.99	1.861
650.19	1.863
650.39	1.872
650.59	1.870
650.79	1.873
650.99	1.871
651.19	1.869
651.39	1.873
651.58	1.873
651.78	1.870
651.98	1.872
652.18	1.869
652.38	1.872
652.58	1.873
652.78	1.871
652.98	1.866
653.18	1.869
653.38	1.877
653.57	1.874
653.77	1.878
653.97	1.881
654.17	1.878
654.37	1.876
654.57	1.872
654.77	1.874
654.97	1.874
655.16	1.874
655.36	1.873
655.56	1.867
655.76	1.869
655.96	1.867
656.16	1.871
656.36	1.868
656.56	1.867
656.75	1.866
656.95	1.868
657.15	1.875
657.35	1.876
657.55	1.872
657.75	1.876
657.95	1.875
658.14	1.874
658.34	1.871
658.54	1.868
658.74	1.866
658.94	1.865
659.14	1.862
659.34	1.867
659.53	1.871
659.73	1.878
659.93	1.878
660.13	1.888
660.33	1.882
660.53	1.891
660.72	1.896
660.92	1.895
661.12	1.889
661.32	1.890
661.52	1.891
661.72	1.890
661.91	1.892
662.11	1.891
662.31	1.893
662.51	1.898
662.71	1.906
662.90	1.901
663.10	1.906
663.30	1.906
663.50	1.900
663.70	1.897
663.90	1.892
664.09	1.883
664.29	1.877
664.49	1.880
664.69	1.869
664.89	1.865
665.08	1.863
665.28	1.870
665.48	1.861
665.68	1.863
665.88	1.857
666.07	1.852
666.27	1.855
666.47	1.855
666.67	1.857
666.87	1.854
667.06	1.861
667.26	1.858
667.46	1.862
667.66	1.863
667.85	1.865
668.05	1.865
668.25	1.866
668.45	1.867
668.65	1.868
668.84	1.876
669.04	1.883
669.24	1.892
669.44	1.895
669.63	1.896
669.83	1.900
670.03	1.908
670.23	1.910
670.42	1.907
670.62	1.907
670.82	1.901
671.02	1.905
671.22	1.901
671.41	1.899
671.61	1.896
671.81	1.901
672.01	1.898
672.20	1.894
672.40	1.899
672.60	1.903
672.80	1.903
672.99	1.895
673.19	1.892
673.39	1.879
673.58	1.873
673.78	1.877
673.98	1.874
674.18	1.872
674.37	1.873
674.57	1.878
674.77	1.879
674.97	1.890
675.16	1.893
675.36	1.889
675.56	1.891
675.75	1.892
675.95	1.887
676.15	1.889
676.35	1.893
676.54	1.896
676.74	1.893
676.94	1.895
677.13	1.899
677.33	1.895
677.53	1.909
677.73	1.914
677.92	1.914
678.12	1.910
678.32	1.914
678.51	1.906
678.71	1.903
678.91	1.905
679.11	1.903
679.30	1.903
679.50	1.907
679.70	1.916
679.89	1.918
680.09	1.920
680.29	1.924
680.48	1.926
680.68	1.922
680.88	1.922
681.07	1.919
681.27	1.920
681.47	1.915
681.66	1.915
681.86	1.907
682.06	1.910
682.25	1.908
682.45	1.904
682.65	1.909
682.84	1.907
683.04	1.900
683.24	1.901
683.43	1.901
683.63	1.902
683.83	1.898
684.02	1.895
684.22	1.900
684.42	1.894
684.61	1.895
684.81	1.897
685.01	1.904
685.20	1.905
685.40	1.905
685.60	1.920
685.79	1.908
685.99	1.914
686.19	1.913
686.38	1.916
686.58	1.918
686.77	1.916
686.97	1.919
687.17	1.923
687.36	1.920
687.56	1.918
687.76	1.915
687.95	1.908
688.15	1.908
688.34	1.905
688.54	1.907
688.74	1.909
688.93	1.908
689.13	1.902
689.33	1.908
689.52	1.914
689.72	1.906
689.91	1.916
690.11	1.911
690.31	1.909
690.50	1.917
690.70	1.915
690.89	1.920
691.09	1.922
691.29	1.920
691.48	1.916
691.68	1.912
691.87	1.918
692.07	1.923
692.27	1.923
692.46	1.925
692.66	1.928
692.85	1.928
693.05	1.930
693.25	1.928
693.44	1.925
693.64	1.922
693.83	1.929
694.03	1.932
694.22	1.933
694.42	1.938
694.62	1.939
694.81	1.940
695.01	1.937
695.20	1.936
695.40	1.945
695.59	1.946
695.79	1.951
695.99	1.958
696.18	1.960
696.38	1.960
696.57	1.958
696.77	1.957
696.96	1.957
697.16	1.958
697.36	1.961
697.55	1.964
697.75	1.962
697.94	1.956
698.14	1.949
698.33	1.956
698.53	1.951
698.72	1.946
698.92	1.945
699.11	1.945
699.31	1.943
699.51	1.935
699.70	1.936
699.90	1.938
700.09	1.930
700.29	1.928
700.48	1.934
700.68	1.932
700.87	1.934
701.07	1.935
701.26	1.934
701.46	1.942
701.65	1.937
701.85	1.933
702.04	1.932
702.24	1.930
702.43	1.928
702.63	1.927
702.82	1.925
703.02	1.927
703.21	1.926
703.41	1.926
703.60	1.932
703.80	1.931
703.99	1.928
704.19	1.927
704.38	1.927
704.58	1.927
704.77	1.931
704.97	1.928
705.16	1.926
705.36	1.922
705.55	1.918
705.75	1.919
705.94	1.926
706.14	1.931
706.33	1.933
706.53	1.937
706.72	1.934
706.92	1.942
707.11	1.944
707.31	1.947
707.50	1.944
707.70	1.936
707.89	1.934
708.09	1.934
708.28	1.945
708.48	1.944
708.67	1.938
708.86	1.938
709.06	1.935
709.25	1.936
709.45	1.942
709.64	1.937
709.84	1.939
710.03	1.940
710.23	1.938
710.42	1.943
710.62	1.937
710.81	1.940
711.00	1.936
711.20	1.936
711.39	1.940
711.59	1.938
711.78	1.941
711.98	1.946
712.17	1.947
712.37	1.945
712.56	1.947
712.75	1.950
712.95	1.949
713.14	1.952
713.34	1.948
713.53	1.941
713.73	1.942
713.92	1.945
714.11	1.946
714.31	1.951
714.50	1.948
714.70	1.954
714.89	1.955
715.08	1.958
715.28	1.964
715.47	1.953
715.67	1.962
715.86	1.960
716.06	1.964
716.25	1.962
716.44	1.958
716.64	1.962
716.83	1.965
717.03	1.968
717.22	1.973
717.41	1.976
717.61	1.973
717.80	1.972
717.99	1.967
718.19	1.964
718.38	1.953
718.58	1.952
718.77	1.943
718.96	1.940
719.16	1.942
719.35	1.933
719.55	1.942
719.74	1.937
719.93	1.939
720.13	1.935
720.32	1.941
720.51	1.942
720.71	1.937
720.90	1.933
721.10	1.929
721.29	1.928
721.48	1.933
721.68	1.941
721.87	1.955
722.06	1.957
722.26	1.953
722.45	1.960
722.64	1.954
722.84	1.962
723.03	1.966
723.22	1.966
723.42	1.968
723.61	1.959
723.80	1.961
724.00	1.962
724.19	1.962
724.38	1.964
724.58	1.967
724.77	1.974
724.96	1.972
725.16	1.975
725.35	1.968
725.54	1.964
725.74	1.960
725.93	1.951
726.12	1.948
726.32	1.954
726.51	1.946
726.70	1.955
726.90	1.948
727.09	1.950
727.28	1.952
727.48	1.957
727.67	1.960
727.86	1.965
728.06	1.962
728.25	1.965
728.44	1.957
728.64	1.950
728.83	1.946
729.02	1.953
729.21	1.955
729.41	1.959
729.60	1.956
729.79	1.960
729.99	1.955
730.18	1.953
730.37	1.949
730.56	1.955
730.76	1.957
730.95	1.957
731.14	1.955
731.34	1.945
731.53	1.942
731.72	1.950
731.91	1.937
732.11	1.944
732.30	1.948
732.49	1.947
732.69	1.951
732.88	1.951
733.07	1.948
733.26	1.946
733.46	1.949
733.65	1.951
733.84	1.948
734.03	1.946
734.23	1.953
734.42	1.955
734.61	1.953
734.80	1.954
735.00	1.955
735.19	1.955
735.38	1.954
735.57	1.958
735.77	1.956
735.96	1.965
736.15	1.968
736.34	1.960
736.54	1.956
736.73	1.950
736.92	1.957
737.11	1.964
737.31	1.961
737.50	1.956
737.69	1.958
737.88	1.966
738.07	1.971
738.27	1.968
738.46	1.975
738.65	1.977
738.84	1.968
739.04	1.968
739.23	1.965
739.42	1.969
739.61	1.968
739.80	1.966
740.00	1.972
740.19	1.966
740.38	1.968
740.57	1.979
740.76	1.980
740.96	1.977
741.15	1.974
741.34	1.974
741.53	1.979
741.72	1.979
741.92	1.975
742.11	1.979
742.30	1.978
742.49	1.973
742.68	1.971
742.88	1.986
743.07	1.987
743.26	1.991
743.45	1.986
743.64	1.984
743.84	1.986
744.03	1.978
744.22	1.983
744.41	1.985
744.60	1.976
744.79	1.980
744.99	1.972
745.18	1.969
745.37	1.970
745.56	1.972
745.75	1.967
745.94	1.970
746.14	1.962
746.33	1.968
746.52	1.963
746.71	1.966
746.90	1.952
747.09	1.955
747.28	1.952
747.48	1.957
747.67	1.956
747.86	1.953
748.05	1.950
748.24	1.944
748.43	1.939
748.62	1.945
748.82	1.943
749.01	1.950
749.20	1.951
749.39	1.951
749.58	1.939
749.77	1.940
749.96	1.940
750.16	1.949
750.35	1.941
750.54	1.946
750.73	1.947
750.92	1.957
751.11	1.957
751.30	1.960
751.49	1.963
751.68	1.964
751.88	1.967
752.07	1.966
752.26	1.976
752.45	1.979
752.64	1.970
752.83	1.970
753.02	1.970
753.21	1.979
753.40	1.976
753.60	1.990
753.79	1.992
753.98	1.990
754.17	1.991
754.36	1.997
754.55	1.995
754.74	1.991
754.93	1.988
755.12	1.991
755.31	1.992
755.50	1.990
755.70	1.990
755.89	1.991
756.08	1.993
756.27	1.983
756.46	1.981
756.65	1.992
756.84	1.994
757.03	1.993
757.22	1.981
757.41	1.987
757.60	1.986
757.79	1.988
757.98	1.986
758.17	1.979
758.36	1.977
758.56	1.975
758.75	1.977
758.94	1.974
759.13	1.969
759.32	1.970
759.51	1.969
759.70	1.969
759.89	1.970
760.08	1.969
760.27	1.977
760.46	1.986
760.65	1.980
760.84	1.978
761.03	1.976
761.22	1.980
761.41	1.982
761.60	1.982
761.79	1.981
761.98	1.982
762.17	1.987
762.36	1.995
762.55	2.003
762.74	1.999
762.93	1.997
763.12	1.999
763.31	1.996
763.50	1.996
763.69	1.992
763.88	1.990
764.07	1.993
764.26	1.993
764.45	1.986
764.64	1.984
764.83	1.987
765.02	1.992
765.21	1.995
765.40	1.989
765.59	1.987
765.78	1.984
765.97	1.986
766.16	1.986
766.35	1.974
766.54	1.966
766.73	1.977
766.92	1.981
767.11	1.987
767.30	1.988
767.49	1.995
767.68	2.002
767.87	2.006
768.06	2.006
768.25	1.999
768.44	2.002
768.63	2.013
768.82	2.015
769.01	2.008
769.20	1.999
769.39	2.001
769.58	1.999
769.77	2.005
769.96	2.011
770.15	2.004
770.34	2.009
770.53	2.015
770.72	2.010
770.91	2.013
771.10	2.008
771.29	2.008
771.47	2.008
771.66	2.010
771.85	2.001
772.04	2.003
772.23	2.004
772.42	2.013
772.61	2.013
772.80	2.009
772.99	2.011
773.18	2.013
773.37	2.014
773.56	2.016
773.75	2.008
773.94	2.011
774.13	2.018
774.31	2.017
774.50	2.009
774.69	2.013
774.88	2.013
775.07	2.008
775.26	2.005
775.45	1.997
775.64	1.994
775.83	2.002
776.02	1.999
776.21	2.003
776.40	1.990
776.58	1.987
776.77	1.991
776.96	1.993
777.15	1.996
777.34	2.003
777.53	2.001
777.72	2.002
777.91	1.989
778.10	1.985
778.28	1.981
778.47	1.990
778.66	1.983
778.85	1.978
779.04	1.979
779.23	1.977
779.42	1.983
779.61	1.981
779.79	1.982
779.98	1.983
780.17	1.983
780.36	1.991
780.55	1.991
780.74	1.988
780.93	1.988
781.12	1.984
781.30	1.983
781.49	1.982
781.68	1.984
781.87	1.989
782.06	1.987
782.25	1.997
782.44	1.993
782.62	2.002
782.81	2.009
783.00	2.012
783.19	2.019
783.38	2.023
783.57	2.023
783.75	2.018
783.94	2.015
784.13	2.009
784.32	2.004
784.51	2.000
784.70	1.996
784.88	2.001
785.07	1.997
785.26	1.995
785.45	2.000
785.64	2.009
785.83	2.008
786.01	2.010
786.20	2.007
786.39	2.009
786.58	2.000
786.77	1.998
786.95	2.000
787.14	1.994
787.33	1.985
787.52	1.984
787.71	1.981
787.90	1.984
788.08	1.987
788.27	1.989
788.46	1.993
788.65	1.994
788.84	1.992
789.02	1.995
789.21	1.989
789.40	1.989
789.59	1.983
789.77	1.980
789.96	1.976
790.15	1.969
790.34	1.968
790.53	1.972
790.71	1.972
790.90	1.968
791.09	1.976
791.28	1.980
791.46	1.988
791.65	1.995
791.84	1.998
792.03	1.999
792.22	1.991
792.40	1.991
792.59	1.990
792.78	1.988
792.97	1.994
793.15	2.003
793.34	2.000
793.53	2.006
793.72	2.014
793.90	2.017
794.09	2.025
794.28	2.029
794.47	2.028
794.65	2.023
794.84	2.024
795.03	2.021
795.22	2.020
795.40	2.016
795.59	2.014
795.78	2.015
795.97	2.012
796.15	2.013
796.34	2.018
796.53	2.021
796.71	2.024
796.90	2.020
797.09	2.017
797.28	2.013
797.46	2.001
797.65	1.998
797.84	2.002
798.02	2.001
798.21	1.997
798.40	1.997
798.59	1.997
798.77	1.995
798.96	1.995
799.15	1.988
799.33	1.990
799.52	1.992
799.71	1.988
799.90	1.995
800.08	1.998
800.27	1.998
800.46	2.001
800.64	1.999
800.83	2.000
801.02	2.002
801.20	2.004
801.39	2.008
801.58	2.008
801.76	2.005
801.95	2.008
802.14	2.007
802.32	2.007
802.51	2.010
802.70	2.014
802.88	2.005
803.07	2.010
803.26	2.010
803.44	2.012
803.63	2.017
803.82	2.014
804.00	2.009
804.19	2.009
804.38	2.004
804.56	2.007
804.75	2.008
804.94	2.001
805.12	2.002
805.31	2.003
805.50	2.000
805.68	1.998
805.87	1.996
806.06	1.995
806.24	1.999
806.43	1.999
806.62	2.003
806.80	2.015
806.99	2.017
807.17	2.011
807.36	2.006
807.55	2.003
807.73	2.001
807.92	2.008
808.11	2.009
808.29	2.010
808.48	2.009
808.66	2.008
808.85	2.012
809.04	2.015
809.22	2.014
809.41	2.017
809.59	2.019
809.78	2.017
809.97	2.017
810.15	2.012
810.34	2.007
810.53	2.009
810.71	2.001
810.90	1.999
811.08	2.006
811.27	2.005
811.45	2.006
811.64	2.007
811.83	2.006
812.01	2.003
812.20	2.000
812.38	2.001
812.57	2.005
812.76	2.008
812.94	2.006
813.13	2.010
813.31	2.006
813.50	2.008
813.68	2.013
813.87	2.019
814.06	2.023
814.24	2.028
814.43	2.024
814.61	2.028
814.80	2.029
814.98	2.025
815.17	2.029
815.36	2.024
815.54	2.021
815.73	2.015
815.91	2.014
816.10	2.014
816.28	2.015
816.47	2.010
816.65	2.008
816.84	2.008
817.03	2.006
817.21	2.008
817.40	2.004
817.58	2.000
817.77	1.993
817.95	1.989
818.14	1.988
818.32	1.991
818.51	1.988
818.69	1.991
818.88	1.994
819.06	1.997
819.25	1.997
819.43	2.002
819.62	2.004
819.80	2.005
819.99	2.008
820.18	2.009
820.36	2.014
820.55	2.013
820.73	2.013
820.92	2.015
821.10	2.011
821.29	2.016
821.47	2.011
821.66	2.019
821.84	2.021
822.03	2.018
822.21	2.012
822.40	2.017
822.58	2.010
822.77	2.007
822.95	2.007
823.14	2.016
823.32	2.011
823.50	2.016
823.69	2.014
823.87	2.011
824.06	2.007
824.24	2.004
824.43	2.011
824.61	2.011
824.80	2.005
824.98	2.003
825.17	2.007
825.35	2.017
825.54	2.013
825.72	2.016
825.91	2.018
826.09	2.020
826.28	2.018
826.46	2.024
826.64	2.026
826.83	2.028
827.01	2.027
827.20	2.031
827.38	2.029
827.57	2.026
827.75	2.031
827.94	2.027
828.12	2.025
828.31	2.024
828.49	2.025
828.67	2.028
828.86	2.032
829.04	2.025
829.23	2.016
829.41	2.013
829.60	2.009
829.78	2.009
829.96	2.004
830.15	2.006
830.33	2.013
830.52	2.014
830.70	2.012
830.88	2.005
831.07	2.009
831.25	2.010
831.44	2.011
831.62	2.008
831.81	2.010
831.99	2.013
832.17	2.008
832.36	2.001
832.54	1.999
832.73	2.001
832.91	2.005
833.09	2.007
833.28	2.008
833.46	2.014
833.65	2.016
833.83	2.017
834.01	2.022
834.20	2.022
834.38	2.017
834.56	2.012
834.75	2.012
834.93	2.005
835.12	2.007
835.30	2.014
835.48	2.016
835.67	2.016
835.85	2.019
836.03	2.017
836.22	2.026
836.40	2.030
836.59	2.033
836.77	2.032
836.95	2.032
837.14	2.036
837.32	2.037
837.50	2.040
837.69	2.040
837.87	2.033
838.05	2.031
838.24	2.025
838.42	2.031
838.60	2.035
838.79	2.037
838.97	2.035
839.15	2.037
839.34	2.038
839.52	2.035
839.70	2.032
839.89	2.031
840.07	2.032
840.25	2.041
840.44	2.043
840.62	2.038
840.80	2.039
840.99	2.036
841.17	2.034
841.35	2.032
841.54	2.031
841.72	2.030
841.90	2.022
842.09	2.020
842.27	2.018
842.45	2.018
842.64	2.017
842.82	2.014
843.00	2.000
843.19	1.998
843.37	2.006
843.55	2.008
843.73	2.005
843.92	1.999
844.10	1.998
844.28	1.993
844.47	1.998
844.65	1.998
844.83	2.001
845.01	1.992
845.20	1.991
845.38	1.994
845.56	1.994
845.75	1.997
845.93	2.007
846.11	2.009
846.29	2.007
846.48	2.010
846.66	2.014
846.84	2.033
847.02	2.036
847.21	2.029
847.39	2.015
847.57	2.023
847.76	2.027
847.94	2.014
848.12	2.013
848.30	2.013
848.49	2.010
848.67	2.008
848.85	2.017
849.03	2.018
849.22	2.015
849.40	2.013
849.58	2.013
849.76	2.006
849.95	1.994
850.13	1.997
850.31	1.993
850.49	1.995
850.67	1.989
850.86	1.990
851.04	1.996
851.22	2.007
851.40	2.010
851.59	2.007
851.77	2.016
851.95	2.016
852.13	2.003
852.31	2.002
852.50	2.005
852.68	2.006
852.86	2.009
853.04	2.009
853.23	2.012
853.41	2.015
853.59	2.018
853.77	2.024
853.95	2.026
854.14	2.023
854.32	2.024
854.50	2.024
854.68	2.011
854.86	2.010
855.04	2.011
855.23	2.002
855.41	2.000
855.59	1.997
855.77	1.994
855.95	2.006
856.14	2.016
856.32	2.012
856.50	2.005
856.68	2.009
856.86	2.016
857.04	2.015
857.23	2.018
857.41	2.021
857.59	2.022
857.77	2.013
857.95	2.019
858.13	2.013
858.32	2.010
858.50	2.023
858.68	2.015
858.86	2.015
859.04	2.021
859.22	2.029
859.41	2.022
859.59	2.031
859.77	2.032
859.95	2.022
860.13	2.023
860.31	2.026
860.49	2.019
860.68	2.014
860.86	2.015
861.04	2.011
861.22	2.002
861.40	2.004
861.58	2.009
861.76	2.010
861.94	2.011
862.13	2.022
862.31	2.025
862.49	2.032
862.67	2.029
862.85	2.033
863.03	2.025
863.21	2.035
863.39	2.031
863.57	2.025
863.76	2.030
863.94	2.035
864.12	2.035
864.30	2.040
864.48	2.038
864.66	2.031
864.84	2.035
865.02	2.037
865.20	2.038
865.38	2.041
865.57	2.040
865.75	2.039
865.93	2.027
866.11	2.017
866.29	2.011
866.47	2.011
866.65	2.000
866.83	2.005
867.01	2.003
867.19	1.997
867.37	1.997
867.55	2.006
867.73	2.002
867.92	2.002
868.10	2.007
868.28	2.011
868.46	2.019
868.64	2.009
868.82	2.011
869.00	2.007
869.18	1.997
869.36	1.996
869.54	2.002
869.72	2.010
869.90	2.014
870.08	2.024
870.26	2.027
870.44	2.035
870.62	2.034
870.80	2.033
870.98	2.030
871.16	2.030
871.34	2.016
871.53	2.020
871.71	2.021
871.89	2.012
872.07	2.011
872.25	2.014
872.43	2.015
872.61	2.022
872.79	2.021
872.97	2.024
873.15	2.026
873.33	2.026
873.51	2.017
873.69	2.021
873.87	2.018
874.05	2.018
874.23	2.013
874.41	2.014
874.59	2.010
874.77	2.020
874.95	2.025
875.13	2.024
875.31	2.021
875.49	2.020
875.67	2.024
875.85	2.025
876.03	2.015
876.21	2.018
876.39	2.017
876.57	2.023
876.75	2.032
876.93	2.034
877.11	2.033
877.29	2.040
877.47	2.037
877.65	2.026
877.82	2.030
878.00	2.033
878.18	2.029
878.36	2.032
878.54	2.035
878.72	2.033
878.90	2.036
879.08	2.031
879.26	2.034
879.44	2.028
879.62	2.030
879.80	2.035
879.98	2.040
880.16	2.036
880.34	2.031
880.52	2.027
880.70	2.029
880.88	2.026
881.06	2.017
881.24	2.017
881.42	2.026
881.59	2.014
881.77	2.017
881.95	2.019
882.13	2.016
882.31	2.017
882.49	2.019
882.67	2.023
882.85	2.022
883.03	2.022
883.21	2.025
883.39	2.019
883.57	2.016
883.75	2.014
883.92	2.016
884.10	2.020
884.28	2.022
884.46	2.015
884.64	2.013
884.82	2.017
885.00	2.016
885.18	2.023
885.36	2.022
885.54	2.017
885.71	2.015
885.89	2.018
886.07	2.012
886.25	2.008
886.43	2.010
886.61	2.016
886.79	2.010
886.97	2.010
887.15	2.010
887.32	2.011
887.50	2.013
887.68	2.015
887.86	2.008
888.04	2.008
888.22	2.009
888.40	2.012
888.57	2.012
888.75	2.011
888.93	2.006
889.11	2.012
889.29	2.017
889.47	2.018
889.65	2.020
889.82	2.019
890.00	2.021
890.18	2.014
890.36	2.012
890.54	2.009
890.72	2.011
890.90	2.015
891.07	2.021
891.25	2.023
891.43	2.020
891.61	2.028
891.79	2.025
891.97	2.023
892.14	2.019
892.32	2.022
892.50	2.020
892.68	2.015
892.86	2.020
893.03	2.012
893.21	2.015
893.39	2.009
893.57	2.015
893.75	2.014
893.93	2.020
894.10	2.024
894.28	2.026
894.46	2.023
894.64	2.024
894.82	2.022
894.99	2.017
895.17	2.013
895.35	2.012
895.53	2.012
895.71	2.013
895.88	2.019
896.06	2.019
896.24	2.021
896.42	2.021
896.59	2.020
896.77	2.025
896.95	2.029
897.13	2.033
897.31	2.043
897.48	2.044
897.66	2.036
897.84	2.038
898.02	2.043
898.19	2.039
898.37	2.037
898.55	2.038
898.73	2.038
898.91	2.043
899.08	2.040
899.26	2.044
899.44	2.048
899.62	2.044
899.79	2.047
899.97	2.043
900.15	2.043
900.33	2.039
900.50	2.043
900.68	2.041
900.86	2.040
901.04	2.030
901.21	2.035
901.39	2.041
901.57	2.043
901.74	2.037
901.92	2.038
902.10	2.034
902.28	2.033
902.45	2.031
902.63	2.029
902.81	2.031
902.99	2.030
903.16	2.030
903.34	2.032
903.52	2.032
903.69	2.039
903.87	2.041
904.05	2.038
904.22	2.037
904.40	2.034
904.58	2.032
904.76	2.029
904.93	2.025
905.11	2.024
905.29	2.017
905.46	2.022
905.64	2.024
905.82	2.022
905.99	2.016
906.17	2.016
906.35	2.017
906.53	2.014
906.70	2.009
906.88	2.010
907.06	2.007
907.23	2.008
907.41	2.004
907.59	2.005
907.76	2.008
907.94	2.006
908.12	2.004
908.29	2.003
908.47	1.999
908.65	1.996
908.82	1.999
909.00	1.996
909.18	1.991
909.35	1.987
909.53	1.991
909.71	1.997
909.88	2.006
910.06	2.011
910.23	2.010
910.41	2.017
910.59	2.013
910.76	2.012
910.94	2.011
911.12	2.014
911.29	2.018
911.47	2.018
911.65	2.016
911.82	2.014
912.00	2.018
912.17	2.030
912.35	2.036
912.53	2.033
912.70	2.035
912.88	2.042
913.06	2.044
913.23	2.040
913.41	2.034
913.58	2.024
913.76	2.020
913.94	2.023
914.11	2.018
914.29	2.009
914.46	2.010
914.64	2.006
914.82	2.006
914.99	1.999
915.17	1.995
915.34	1.995
915.52	2.001
915.70	2.005
915.87	1.996
916.05	1.995
916.22	1.994
916.40	1.995
916.57	1.988
916.75	1.990
916.93	1.996
917.10	1.995
917.28	1.999
917.45	1.998
917.63	2.002
917.80	2.001
917.98	2.007
918.16	2.004
918.33	2.006
918.51	2.005
918.68	2.007
918.86	2.011
919.03	2.011
919.21	2.013
919.39	2.010
919.56	2.011
919.74	2.012
919.91	2.012
920.09	2.012
920.26	2.017
920.44	2.017
920.61	2.013
920.79	2.016
920.96	2.010
921.14	2.006
921.31	2.004
921.49	2.008
921.67	2.010
921.84	2.013
922.02	2.013
922.19	2.012
922.37	2.015
922.54	2.011
922.72	2.010
922.89	2.008
923.07	2.010
923.24	2.009
923.42	2.017
923.59	2.015
923.77	2.016
923.94	2.017
924.12	2.017
924.29	2.017
924.47	2.021
924.64	2.025
924.82	2.023
924.99	2.031
925.17	2.038
925.34	2.033
925.52	2.028
925.69	2.021
925.87	2.021
926.04	2.025
926.22	2.027
926.39	2.029
926.57	2.030
926.74	2.025
926.91	2.023
927.09	2.016
927.26	2.020
927.44	2.019
927.61	2.024
927.79	2.019
927.96	2.022
928.14	2.026
928.31	2.029
928.49	2.032
928.66	2.023
928.84	2.008
929.01	2.018
929.18	2.028
929.36	2.026
929.53	2.021
929.71	2.018
929.88	2.029
930.06	2.026
930.23	2.024
930.41	2.023
930.58	2.021
930.75	2.018
930.93	2.014
931.10	2.010
931.28	2.000
931.45	2.009
931.63	2.005
931.80	2.007
931.97	2.002
932.15	2.012
932.32	2.012
932.50	2.017
932.67	2.005
932.84	2.002
933.02	2.008
933.19	2.009
933.37	2.001
933.54	1.991
933.71	1.988
933.89	1.992
934.06	1.989
934.24	1.997
934.41	1.996
934.58	2.005
934.76	2.012
934.93	2.010
935.11	2.000
935.28	2.006
935.45	2.001
935.63	1.998
935.80	1.995
935.98	1.999
936.15	2.004
936.32	2.014
936.50	2.016
936.67	2.022
936.84	2.028
937.02	2.027
937.19	2.039
937.36	2.040
937.54	2.031
937.71	2.035
937.89	2.035
938.06	2.043
938.23	2.035
938.41	2.029
938.58	2.035
938.75	2.040
938.93	2.032
939.10	2.034
939.27	2.039
939.45	2.031
939.62	2.022
939.79	2.022
939.97	2.010
940.14	2.007
940.31	2.003
940.49	2.001
940.66	2.010
940.83	1.997
941.01	2.006
941.18	2.002
941.35	2.004
941.53	1.993
941.70	1.984
941.87	1.976
942.05	1.981
942.22	1.981
942.39	1.981
942.57	1.980
942.74	1.984
942.91	1.977
943.08	1.981
943.26	1.989
943.43	1.985
943.60	1.996
943.78	1.995
943.95	1.990
944.12	1.989
944.29	1.988
944.47	1.996
944.64	1.988
944.81	1.993
944.99	1.991
945.16	2.001
945.33	2.005
945.50	2.020
945.68	2.009
945.85	2.011
946.02	2.009
946.20	2.011
946.37	2.004
946.54	2.005
946.71	1.998
946.89	1.990
947.06	1.993
947.23	1.998
947.40	2.000
947.58	2.006
947.75	2.013
947.92	2.005
948.09	1.999
948.27	2.006
948.44	2.007
948.61	2.004
948.78	1.998
948.96	1.994
949.13	1.985
949.30	1.999
949.47	1.997
949.65	2.000
949.82	2.002
949.99	2.004
950.16	2.011
950.33	2.032
950.51	2.037
950.68	2.031
950.85	2.032
951.02	2.029
951.20	2.029
951.37	2.027
951.54	2.042
951.71	2.044
951.88	2.039
952.06	2.042
952.23	2.040
952.40	2.041
952.57	2.046
952.74	2.053
952.92	2.050
953.09	2.054
953.26	2.052
953.43	2.051
953.60	2.049
953.77	2.041
953.95	2.029
954.12	2.027
954.29	2.024
954.46	2.019
954.63	2.029
954.81	2.035
954.98	2.033
955.15	2.028
955.32	2.030
955.49	2.034
955.66	2.034
955.84	2.044
956.01	2.040
956.18	2.048
956.35	2.042
956.52	2.030
956.69	2.044
956.87	2.040
957.04	2.062
957.21	2.064
957.38	2.078
957.55	2.065
957.72	2.060
957.89	2.070
958.07	2.070
958.24	2.061
958.41	2.046
958.58	2.046
958.75	2.037
958.92	2.031
959.09	2.051
959.26	2.054
959.44	2.054
959.61	2.056
959.78	2.038
959.95	2.042
960.12	2.061
960.29	2.053
960.46	2.056
960.63	2.032
960.81	2.042
960.98	2.034
961.15	2.053
961.32	2.056
961.49	2.051
961.66	2.058
961.83	2.054
962.00	2.053
962.17	2.054
962.34	2.063
962.52	2.063
962.69	2.033
962.86	2.028
963.03	2.030
963.20	2.026
963.37	2.037
963.54	2.020
963.71	2.003
963.88	2.006
964.05	2.020
964.22	2.020
964.39	2.009
964.56	2.011
964.74	2.004
964.91	2.027
965.08	2.042
965.25	2.022
965.42	2.030
965.59	2.043
965.76	2.030
965.93	2.024
966.10	2.029
966.27	2.026
966.44	2.013
966.61	2.004
966.78	2.008
966.95	2.009
967.12	2.018
967.29	2.034
967.46	2.011
967.63	1.994
967.80	1.991
967.97	1.991
968.14	2.006
968.32	1.999
968.49	1.978
968.66	1.966
968.83	1.978
969.00	1.963
969.17	1.975
969.34	1.978
969.51	1.983
969.68	1.975
969.85	1.981
970.02	1.991
970.19	2.013
970.36	2.011
970.53	2.011
970.70	1.997
970.87	2.003
971.04	2.022
971.21	2.031
971.38	2.040
971.55	2.048
971.72	2.044
971.89	2.027
972.06	2.031
972.23	2.031
972.40	2.023
972.57	2.040
972.74	2.023
972.91	2.008
973.07	2.004
973.24	2.020
973.41	2.025
973.58	2.021
973.75	2.018
973.92	2.023
974.09	2.056
974.26	2.076
974.43	2.066
974.60	2.060
974.77	2.076
974.94	2.056
975.11	2.062
975.28	2.044
975.45	2.071
975.62	2.067
975.79	2.062
975.96	2.059
976.13	2.063
976.30	2.045
976.47	2.080
976.64	2.079
976.80	2.081
976.97	2.078
977.14	2.101
977.31	2.099
977.48	2.109
977.65	2.071
977.82	2.083
977.99	2.088
978.16	2.091
978.33	2.079
978.50	2.100
978.67	2.071
978.83	2.066
979.00	2.055
979.17	2.048
979.34	2.063
979.51	2.066
979.68	2.066
979.85	2.082
980.02	2.072
980.19	2.080
980.36	2.066
980.52	2.078
980.69	2.059
980.86	2.050
981.03	2.052
981.20	2.049
981.37	2.053
981.54	2.042
981.71	2.024
981.88	2.028
982.04	2.029
982.21	2.047
982.38	2.060
982.55	2.058
982.72	2.067
982.89	2.078
983.06	2.083
983.22	2.086
983.39	2.089
983.56	2.099
983.73	2.092
983.90	2.079
984.07	2.080
984.24	2.111
984.40	2.111
984.57	2.092
984.74	2.102
984.91	2.098
985.08	2.097
985.25	2.116
985.41	2.087
985.58	2.113
985.75	2.086
985.92	2.076
986.09	2.084
986.26	2.106
986.42	2.111
986.59	2.108
986.76	2.107
986.93	2.124
987.10	2.109
987.27	2.093
987.43	2.116
987.60	2.096
987.77	2.080
987.94	2.089
988.11	2.089
988.27	2.088
988.44	2.093
988.61	2.098
988.78	2.104
988.95	2.109
989.11	2.069
989.28	2.111
989.45	2.171
989.62	2.189
989.79	2.140
989.95	2.093
990.12	2.102
990.29	2.096
990.46	2.075
990.62	2.062
990.79	2.080
990.96	2.086
991.13	2.086
991.30	2.085
991.46	2.114
991.63	2.093
991.80	2.075
991.97	2.048
992.13	2.048
992.30	2.038
992.47	2.045
992.64	2.069
992.80	2.046
992.97	1.998
993.14	1.994
993.31	1.970
993.47	2.003
993.64	2.008
993.81	2.022
993.98	2.037
994.14	2.029
994.31	2.020
994.48	2.004
994.64	2.023
994.81	1.995
994.98	1.952
995.15	1.952
995.31	1.959
995.48	1.972
995.65	1.978
995.82	2.012
995.98	2.041
996.15	2.029
996.32	2.016
996.48	1.998
996.65	1.991
996.82	2.054
996.99	2.028
997.15	2.009
997.32	1.995
997.49	1.989
997.65	2.029
997.82	2.040
997.99	2.075
998.15	2.044
998.32	2.075
998.49	2.078
998.65	2.138
998.82	2.120
998.99	2.128
999.15	2.119
999.32	2.044
999.49	2.014
999.65	2.008
999.82	2.022
999.99	2.029
1000.15	2.035
1000.32	2.051
1000.49	2.089
1000.65	2.103
1000.82	2.085
1000.99	2.081
1001.15	2.071
1001.32	2.053
1001.49	2.025
1001.65	2.021
1001.82	2.030
1001.99	2.047
1002.15	2.022
1002.32	2.052
1002.49	2.035
1002.65	2.026
1002.82	2.060
1002.99	2.063
1003.15	2.072
1003.32	2.080
1003.48	2.109
1003.65	2.125
1003.82	2.073
1003.98	2.014
1004.15	2.035
1004.32	2.061
1004.48	2.051
1004.65	2.055
1004.81	2.098
1004.98	2.106
1005.15	2.160
1005.31	2.165
1005.48	2.141
1005.64	2.154
1005.81	2.161
1005.98	2.195
1006.14	2.201
1006.31	2.222
1006.47	2.217
1006.64	2.232
1006.81	2.241
1006.97	2.222
1007.14	2.175
1007.30	2.187
1007.47	2.252
1007.63	2.167
1007.80	2.164
1007.97	2.187
1008.13	2.111
1008.30	2.102
1008.46	2.079
1008.63	2.044
1008.79	2.016
1008.96	2.067
1009.13	2.070
1009.29	2.043
1009.46	2.053
1009.62	2.057
1009.79	2.072
1009.95	2.071
1010.12	2.041
1010.28	2.038
1010.45	2.022
1010.62	2.028
1010.78	2.012
1010.95	2.030
1011.11	2.046
1011.28	2.022
1011.44	1.996
1011.61	2.023
1011.77	2.000
1011.94	2.024
1012.10	2.037
1012.27	2.078
1012.43	2.023
1012.60	2.038
1012.76	2.025
1012.93	2.027
1013.10	2.027
1013.26	2.015
1013.43	2.039
1013.59	2.059
1013.76	2.029
1013.92	2.065
1014.09	2.048
1014.25	2.063
1014.42	2.047
1014.58	2.082
1014.75	2.081
1014.91	2.080
1015.08	2.107
1015.24	2.092
1015.41	2.071
1015.57	2.074
1015.73	2.075
1015.90	2.098
1016.06	2.065
1016.23	2.097
1016.39	2.058
1016.56	2.066
1016.72	2.026
1016.89	2.000
1017.05	1.984
1017.22	2.023
1017.38	2.007
1017.55	2.032
1017.71	1.995
1017.88	2.001
1018.04	1.983
1018.21	1.984
1018.37	1.984
1018.53	1.996
1018.70	2.017
1018.86	2.042
1019.03	1.996
1019.19	1.983
1019.36	1.998
1019.52	1.993
1019.69	1.975
1019.85	1.971
1020.01	1.949
1020.18	1.971
1020.34	1.966
1020.51	1.986
1020.67	1.971
1020.84	1.990
1021.00	1.972
1021.16	2.018
1021.33	1.999
1021.49	1.983
1021.66	1.987
1021.82	1.978
1021.98	1.928
1022.15	1.947
1022.31	1.900
1022.48	1.936
1022.64	1.908
1022.80	1.883
1022.97	1.874
1023.13	1.889
1023.30	1.907
1023.46	1.933
1023.62	1.923
1023.79	1.909
1023.95	1.914
1024.12	1.916
1024.28	1.879
1024.44	1.898
1024.61	1.884
1024.77	1.856
1024.93	1.856
1025.10	1.890
1025.26	1.921
1025.43	1.967
1025.59	1.965
1025.75	2.004
1025.92	1.978
1026.08	1.961
1026.24	1.935
1026.41	1.945
1026.57	1.940
1026.73	1.911
1026.90	1.926
1027.06	1.906
1027.23	1.908
1027.39	1.905
1027.55	1.916
1027.72	1.999
1027.88	2.016
1028.04	2.031
1028.21	2.004
1028.37	2.013
1028.53	1.991
1028.70	1.951
1028.86	1.949
1029.02	1.926
1029.19	1.891
1029.35	1.926
1029.51	1.940
1029.67	1.996
1029.84	1.952
1030.00	1.976
1030.16	2.016
1030.33	1.993
1030.49	1.972
1030.65	2.066
1030.82	2.029
1030.98	2.017
1031.14	1.936
1031.31	1.924
1031.47	1.966
1031.63	2.011
1031.79	2.032
1031.96	1.971
1032.12	2.032
1032.28	2.044
1032.45	1.994
1032.61	2.025
1032.77	1.978
1032.93	1.990
1033.10	1.944
1033.26	1.989
1033.42	1.938
1033.58	1.901
1033.75	1.895
1033.91	1.955
1034.07	1.955
1034.24	1.982
1034.40	1.961
1034.56	1.997
1034.72	2.008
1034.89	1.906
1035.05	1.896
1035.21	1.874
1035.37	1.950
1035.54	1.946
1035.70	1.942
1035.86	2.006
1036.02	2.035
1036.19	2.067
1036.35	2.067
1036.51	2.102
1036.67	2.087
1036.83	2.089
1037.00	2.056
1037.16	2.042
1037.32	2.046
1037.48	2.007
1037.65	1.979
1037.81	2.006
1037.97	1.984
1038.13	1.929
1038.29	1.989
1038.46	2.010
1038.62	1.997
1038.78	1.960
1038.94	1.907
1039.10	1.898
1039.27	1.950
1039.43	1.893
1039.59	1.946
1039.75	1.985
1039.91	1.995
1040.08	1.996
1040.24	2.007
1040.40	2.181
1040.56	2.205
1040.72	2.159
1040.89	2.065
1041.05	2.130
1041.21	2.047
1041.37	2.034
1041.53	2.075
1041.69	2.129
1041.86	2.231
1042.02	2.366
1042.18	2.373
1042.34	2.463
1042.50	2.606
1042.66	2.471
1042.83	2.921
1042.99	2.649
1043.15	2.453
1043.31	2.277
1043.47	2.544
1043.63	2.421
1043.79	2.258
1043.96	2.227
1044.12	2.198
1044.28	2.427
1044.44	2.522
1044.60	3.117
1044.76	3.063
1044.92	-0.000
1045.09	3.514
1045.25	2.683
1045.41	3.052
1045.57	1.734
1045.73	1.640
1045.89	-0.000
1046.05	-0.000
1046.21	-0.000
1046.38	1.674
1046.54	-0.000
1046.70	-0.000
1046.86	1.648
>>>>>End Processed Spectral Data<<<<<
