SpectraSuite Data File
++++++++++++++++++++++++++++++++++++
Date: Mon May 06 14:17:46 CDT 2013
User: Students
Dark Spectrum Present: Yes
Reference Spectrum Present: Yes
Number of Sampled Component Spectra: 1
Spectrometers: USB4H00887
Integration Time (usec): 25000 (USB4H00887)
Spectra Averaged: 10 (USB4H00887)
Boxcar Smoothing: 10 (USB4H00887)
Correct for Electrical Dark: No (USB4H00887)
Strobe/Lamp Enabled: No (USB4H00887)
Correct for Detector Non-linearity: No (USB4H00887)
Correct for Stray Light: No (USB4H00887)
Number of Pixels in Processed Spectrum: 3648
>>>>>Begin Processed Spectral Data<<<<<
345.83	0.664
346.05	0.664
346.26	0.664
346.48	0.084
346.70	-0.000
346.92	-0.000
347.14	0.369
347.35	0.248
347.57	0.160
347.79	-0.016
348.01	0.544
348.23	0.704
348.44	0.904
348.66	1.459
348.88	0.924
349.10	0.612
349.32	0.578
349.53	0.462
349.75	0.537
349.97	0.486
350.19	0.877
350.41	-0.000
350.62	1.184
350.84	-0.000
351.06	-0.000
351.28	-0.000
351.50	-0.000
351.71	1.342
351.93	-0.000
352.15	1.363
352.37	0.838
352.58	-0.000
352.80	0.824
353.02	0.390
353.24	0.296
353.46	0.786
353.67	-0.000
353.89	0.725
354.11	1.050
354.33	1.200
354.54	-0.000
354.76	0.711
354.98	0.786
355.20	1.053
355.41	0.954
355.63	0.970
355.85	0.837
356.07	1.235
356.28	-0.000
356.50	-0.000
356.72	-0.000
356.94	-0.000
357.15	1.105
357.37	1.088
357.59	2.199
357.81	2.506
358.02	2.125
358.24	1.462
358.46	-0.000
358.68	-0.000
358.89	-0.000
359.11	-0.000
359.33	-0.000
359.55	1.090
359.76	1.622
359.98	1.984
360.20	1.657
360.42	1.663
360.63	1.510
360.85	1.098
361.07	0.921
361.29	0.831
361.50	0.795
361.72	1.052
361.94	1.641
362.15	-0.000
362.37	2.368
362.59	1.064
362.81	-0.000
363.02	2.698
363.24	1.087
363.46	0.818
363.68	0.613
363.89	0.620
364.11	0.824
364.33	0.754
364.54	0.813
364.76	0.934
364.98	1.202
365.20	0.881
365.41	0.857
365.63	1.476
365.85	-0.000
366.06	-0.000
366.28	-0.000
366.50	-0.000
366.71	-0.000
366.93	-0.000
367.15	-0.000
367.37	-0.000
367.58	1.696
367.80	-0.000
368.02	-0.000
368.23	-0.000
368.45	-0.000
368.67	-0.000
368.88	-0.000
369.10	-0.000
369.32	-0.000
369.53	-0.000
369.75	-0.000
369.97	-0.000
370.19	-0.000
370.40	-0.000
370.62	-0.000
370.84	-0.000
371.05	-0.000
371.27	-0.000
371.49	-0.000
371.70	-0.000
371.92	-0.000
372.14	-0.000
372.35	-0.000
372.57	-0.000
372.79	-0.000
373.00	-0.000
373.22	-0.000
373.44	-0.000
373.65	-0.000
373.87	-0.000
374.09	-0.000
374.30	-0.000
374.52	-0.000
374.74	-0.000
374.95	-0.000
375.17	-0.000
375.39	-0.000
375.60	-0.000
375.82	-0.000
376.04	-0.000
376.25	-0.000
376.47	-0.000
376.68	-0.000
376.90	-0.000
377.12	-0.000
377.33	-0.000
377.55	-0.000
377.77	-0.000
377.98	-0.000
378.20	-0.000
378.42	-0.000
378.63	-0.000
378.85	-0.000
379.07	-0.000
379.28	-0.000
379.50	-0.000
379.71	-0.000
379.93	-0.000
380.15	-0.000
380.36	-0.000
380.58	-0.000
380.80	-0.000
381.01	-0.000
381.23	1.354
381.44	1.332
381.66	1.499
381.88	1.097
382.09	1.499
382.31	-0.000
382.53	2.639
382.74	-0.000
382.96	-0.000
383.17	-0.000
383.39	-0.000
383.61	-0.000
383.82	-0.000
384.04	-0.000
384.25	-0.000
384.47	-0.000
384.69	-0.000
384.90	-0.000
385.12	-0.000
385.33	-0.000
385.55	-0.000
385.77	-0.000
385.98	-0.000
386.20	-0.000
386.41	-0.000
386.63	-0.000
386.85	-0.000
387.06	-0.000
387.28	-0.000
387.49	-0.000
387.71	1.492
387.93	1.050
388.14	1.132
388.36	1.110
388.57	0.990
388.79	0.827
389.01	0.740
389.22	0.706
389.44	0.774
389.65	0.764
389.87	0.832
390.08	0.821
390.30	0.790
390.52	0.891
390.73	0.936
390.95	0.947
391.16	0.926
391.38	0.945
391.59	1.470
391.81	2.301
392.03	2.685
392.24	-0.000
392.46	-0.000
392.67	-0.000
392.89	-0.000
393.10	-0.000
393.32	-0.000
393.53	-0.000
393.75	-0.000
393.97	-0.000
394.18	-0.000
394.40	-0.000
394.61	-0.000
394.83	-0.000
395.04	-0.000
395.26	-0.000
395.47	-0.000
395.69	-0.000
395.91	-0.000
396.12	-0.000
396.34	-0.000
396.55	-0.000
396.77	-0.000
396.98	1.843
397.20	1.514
397.41	1.605
397.63	1.460
397.84	1.785
398.06	1.615
398.27	1.506
398.49	1.297
398.71	1.399
398.92	1.329
399.14	1.364
399.35	1.531
399.57	1.694
399.78	1.753
400.00	1.602
400.21	1.283
400.43	1.232
400.64	1.226
400.86	1.130
401.07	1.272
401.29	1.177
401.50	1.353
401.72	1.728
401.93	1.630
402.15	-0.000
402.36	1.687
402.58	1.686
402.79	-0.000
403.01	-0.000
403.22	2.652
403.44	-0.000
403.65	-0.000
403.87	-0.000
404.08	-0.000
404.30	-0.000
404.51	2.814
404.73	-0.000
404.94	-0.000
405.16	-0.000
405.37	-0.000
405.59	-0.000
405.80	-0.000
406.02	-0.000
406.23	-0.000
406.45	1.806
406.66	1.959
406.88	-0.000
407.09	-0.000
407.31	-0.000
407.52	-0.000
407.74	-0.000
407.95	-0.000
408.17	-0.000
408.38	-0.000
408.60	-0.000
408.81	-0.000
409.03	-0.000
409.24	-0.000
409.45	-0.000
409.67	-0.000
409.88	-0.000
410.10	-0.000
410.31	-0.000
410.53	-0.000
410.74	-0.000
410.96	-0.000
411.17	-0.000
411.39	-0.000
411.60	-0.000
411.82	-0.000
412.03	-0.000
412.24	-0.000
412.46	-0.000
412.67	-0.000
412.89	2.756
413.10	3.037
413.32	2.169
413.53	1.788
413.75	1.755
413.96	1.567
414.17	1.538
414.39	1.573
414.60	1.680
414.82	1.626
415.03	1.979
415.25	2.390
415.46	1.933
415.68	2.090
415.89	-0.000
416.10	1.655
416.32	1.557
416.53	1.456
416.75	1.434
416.96	1.713
417.18	1.684
417.39	1.864
417.60	1.773
417.82	1.678
418.03	1.819
418.25	2.150
418.46	-0.000
418.67	-0.000
418.89	-0.000
419.10	-0.000
419.32	-0.000
419.53	-0.000
419.75	-0.000
419.96	-0.000
420.17	-0.000
420.39	-0.000
420.60	-0.000
420.82	-0.000
421.03	-0.000
421.24	-0.000
421.46	-0.000
421.67	-0.000
421.89	-0.000
422.10	-0.000
422.31	-0.000
422.53	-0.000
422.74	-0.000
422.96	-0.000
423.17	-0.000
423.38	-0.000
423.60	-0.000
423.81	-0.000
424.03	-0.000
424.24	-0.000
424.45	-0.000
424.67	-0.000
424.88	-0.000
425.09	-0.000
425.31	-0.000
425.52	-0.000
425.74	-0.000
425.95	-0.000
426.16	-0.000
426.38	-0.000
426.59	-0.000
426.80	-0.000
427.02	2.208
427.23	2.035
427.45	2.488
427.66	2.837
427.87	-0.000
428.09	2.977
428.30	2.624
428.51	-0.000
428.73	2.226
428.94	1.865
429.15	1.882
429.37	1.905
429.58	1.871
429.79	1.934
430.01	1.891
430.22	1.769
430.44	1.712
430.65	1.737
430.86	1.688
431.08	1.636
431.29	1.623
431.50	1.577
431.72	1.713
431.93	1.516
432.14	1.589
432.36	1.560
432.57	1.508
432.78	1.523
433.00	1.600
433.21	1.594
433.42	1.570
433.64	1.465
433.85	1.387
434.06	1.397
434.28	1.435
434.49	1.450
434.70	1.401
434.92	1.360
435.13	1.383
435.34	1.368
435.56	1.374
435.77	1.415
435.98	1.443
436.20	1.425
436.41	1.440
436.62	1.349
436.83	1.334
437.05	1.367
437.26	1.351
437.47	1.322
437.69	1.358
437.90	1.367
438.11	1.437
438.33	1.514
438.54	1.431
438.75	1.421
438.97	1.400
439.18	1.423
439.39	1.506
439.60	1.433
439.82	1.496
440.03	1.474
440.24	1.444
440.46	1.420
440.67	1.398
440.88	1.369
441.10	1.373
441.31	1.422
441.52	1.405
441.73	1.440
441.95	1.395
442.16	1.380
442.37	1.416
442.58	1.419
442.80	1.439
443.01	1.511
443.22	1.580
443.44	1.622
443.65	1.588
443.86	1.542
444.07	1.536
444.29	1.524
444.50	1.599
444.71	1.619
444.92	1.616
445.14	1.694
445.35	1.814
445.56	1.763
445.78	1.729
445.99	1.762
446.20	1.661
446.41	1.798
446.63	1.754
446.84	1.670
447.05	1.578
447.26	1.506
447.48	1.490
447.69	1.437
447.90	1.382
448.11	1.398
448.33	1.425
448.54	1.420
448.75	1.412
448.96	1.381
449.18	1.356
449.39	1.422
449.60	1.400
449.81	1.413
450.03	1.470
450.24	1.442
450.45	1.447
450.66	1.459
450.87	1.430
451.09	1.502
451.30	1.521
451.51	1.524
451.72	1.558
451.94	1.556
452.15	1.564
452.36	1.591
452.57	1.635
452.78	1.600
453.00	1.646
453.21	1.676
453.42	1.660
453.63	1.713
453.85	1.569
454.06	1.524
454.27	1.529
454.48	1.539
454.69	1.565
454.91	1.564
455.12	1.584
455.33	1.631
455.54	1.560
455.75	1.555
455.97	1.570
456.18	1.537
456.39	1.537
456.60	1.531
456.81	1.543
457.03	1.511
457.24	1.490
457.45	1.485
457.66	1.457
457.87	1.476
458.09	1.445
458.30	1.463
458.51	1.473
458.72	1.453
458.93	1.410
459.15	1.423
459.36	1.426
459.57	1.399
459.78	1.363
459.99	1.359
460.20	1.351
460.42	1.360
460.63	1.373
460.84	1.365
461.05	1.369
461.26	1.377
461.47	1.365
461.69	1.376
461.90	1.367
462.11	1.359
462.32	1.340
462.53	1.338
462.74	1.366
462.96	1.347
463.17	1.348
463.38	1.363
463.59	1.329
463.80	1.325
464.01	1.328
464.23	1.370
464.44	1.380
464.65	1.394
464.86	1.385
465.07	1.403
465.28	1.431
465.49	1.430
465.71	1.430
465.92	1.456
466.13	1.460
466.34	1.469
466.55	1.489
466.76	1.506
466.97	1.538
467.19	1.498
467.40	1.517
467.61	1.506
467.82	1.498
468.03	1.531
468.24	1.541
468.45	1.531
468.66	1.483
468.88	1.479
469.09	1.448
469.30	1.442
469.51	1.416
469.72	1.404
469.93	1.398
470.14	1.383
470.35	1.383
470.57	1.388
470.78	1.391
470.99	1.390
471.20	1.386
471.41	1.385
471.62	1.401
471.83	1.392
472.04	1.385
472.25	1.380
472.47	1.366
472.68	1.349
472.89	1.349
473.10	1.338
473.31	1.335
473.52	1.355
473.73	1.357
473.94	1.357
474.15	1.342
474.36	1.347
474.57	1.348
474.79	1.357
475.00	1.345
475.21	1.338
475.42	1.327
475.63	1.335
475.84	1.335
476.05	1.332
476.26	1.334
476.47	1.346
476.68	1.349
476.89	1.341
477.10	1.350
477.32	1.348
477.53	1.373
477.74	1.373
477.95	1.357
478.16	1.359
478.37	1.371
478.58	1.373
478.79	1.367
479.00	1.376
479.21	1.359
479.42	1.359
479.63	1.352
479.84	1.361
480.05	1.347
480.26	1.346
480.47	1.344
480.69	1.351
480.90	1.346
481.11	1.350
481.32	1.369
481.53	1.363
481.74	1.370
481.95	1.359
482.16	1.356
482.37	1.359
482.58	1.358
482.79	1.347
483.00	1.346
483.21	1.351
483.42	1.343
483.63	1.345
483.84	1.345
484.05	1.351
484.26	1.353
484.47	1.361
484.68	1.360
484.89	1.356
485.10	1.355
485.31	1.362
485.52	1.362
485.73	1.342
485.94	1.355
486.15	1.351
486.37	1.351
486.58	1.357
486.79	1.359
487.00	1.357
487.21	1.367
487.42	1.371
487.63	1.365
487.84	1.363
488.05	1.371
488.26	1.370
488.47	1.366
488.68	1.369
488.89	1.367
489.10	1.360
489.31	1.361
489.52	1.362
489.73	1.357
489.94	1.351
490.15	1.361
490.36	1.350
490.57	1.352
490.78	1.355
490.99	1.352
491.20	1.351
491.41	1.354
491.62	1.350
491.83	1.354
492.04	1.360
492.25	1.361
492.45	1.354
492.66	1.357
492.87	1.356
493.08	1.351
493.29	1.353
493.50	1.353
493.71	1.355
493.92	1.353
494.13	1.348
494.34	1.352
494.55	1.352
494.76	1.358
494.97	1.369
495.18	1.369
495.39	1.360
495.60	1.357
495.81	1.351
496.02	1.343
496.23	1.343
496.44	1.337
496.65	1.337
496.86	1.341
497.07	1.337
497.28	1.340
497.49	1.336
497.70	1.341
497.91	1.348
498.12	1.353
498.32	1.359
498.53	1.373
498.74	1.375
498.95	1.380
499.16	1.378
499.37	1.364
499.58	1.365
499.79	1.376
500.00	1.381
500.21	1.391
500.42	1.398
500.63	1.396
500.84	1.399
501.05	1.403
501.26	1.408
501.46	1.410
501.67	1.416
501.88	1.427
502.09	1.421
502.30	1.422
502.51	1.421
502.72	1.426
502.93	1.421
503.14	1.422
503.35	1.421
503.56	1.421
503.77	1.431
503.97	1.436
504.18	1.434
504.39	1.437
504.60	1.441
504.81	1.448
505.02	1.451
505.23	1.459
505.44	1.459
505.65	1.452
505.86	1.464
506.07	1.472
506.27	1.471
506.48	1.471
506.69	1.465
506.90	1.461
507.11	1.460
507.32	1.461
507.53	1.465
507.74	1.468
507.95	1.468
508.15	1.468
508.36	1.461
508.57	1.462
508.78	1.458
508.99	1.458
509.20	1.448
509.41	1.441
509.62	1.442
509.82	1.442
510.03	1.442
510.24	1.434
510.45	1.427
510.66	1.425
510.87	1.428
511.08	1.433
511.29	1.441
511.49	1.438
511.70	1.440
511.91	1.441
512.12	1.434
512.33	1.436
512.54	1.430
512.75	1.432
512.95	1.432
513.16	1.432
513.37	1.429
513.58	1.436
513.79	1.443
514.00	1.443
514.20	1.440
514.41	1.437
514.62	1.439
514.83	1.439
515.04	1.437
515.25	1.429
515.46	1.435
515.66	1.431
515.87	1.436
516.08	1.432
516.29	1.427
516.50	1.429
516.71	1.425
516.91	1.433
517.12	1.435
517.33	1.438
517.54	1.447
517.75	1.454
517.95	1.452
518.16	1.455
518.37	1.447
518.58	1.456
518.79	1.464
519.00	1.465
519.20	1.468
519.41	1.475
519.62	1.481
519.83	1.480
520.04	1.479
520.24	1.470
520.45	1.473
520.66	1.479
520.87	1.483
521.08	1.489
521.28	1.488
521.49	1.484
521.70	1.487
521.91	1.476
522.12	1.474
522.32	1.477
522.53	1.475
522.74	1.480
522.95	1.477
523.16	1.474
523.36	1.476
523.57	1.474
523.78	1.475
523.99	1.475
524.20	1.473
524.40	1.478
524.61	1.483
524.82	1.477
525.03	1.476
525.23	1.475
525.44	1.471
525.65	1.473
525.86	1.483
526.06	1.482
526.27	1.486
526.48	1.486
526.69	1.483
526.90	1.482
527.10	1.482
527.31	1.480
527.52	1.484
527.73	1.479
527.93	1.484
528.14	1.476
528.35	1.478
528.56	1.473
528.76	1.470
528.97	1.467
529.18	1.467
529.39	1.466
529.59	1.468
529.80	1.471
530.01	1.468
530.22	1.467
530.42	1.467
530.63	1.468
530.84	1.465
531.05	1.463
531.25	1.464
531.46	1.462
531.67	1.462
531.88	1.459
532.08	1.467
532.29	1.459
532.50	1.460
532.70	1.463
532.91	1.469
533.12	1.474
533.33	1.479
533.53	1.481
533.74	1.481
533.95	1.479
534.15	1.476
534.36	1.472
534.57	1.471
534.78	1.471
534.98	1.469
535.19	1.468
535.40	1.468
535.60	1.468
535.81	1.467
536.02	1.466
536.23	1.467
536.43	1.462
536.64	1.464
536.85	1.467
537.05	1.463
537.26	1.460
537.47	1.453
537.67	1.448
537.88	1.450
538.09	1.449
538.30	1.453
538.50	1.451
538.71	1.455
538.92	1.453
539.12	1.447
539.33	1.449
539.54	1.449
539.74	1.450
539.95	1.452
540.16	1.457
540.36	1.459
540.57	1.461
540.78	1.464
540.98	1.468
541.19	1.466
541.40	1.469
541.60	1.470
541.81	1.468
542.02	1.467
542.22	1.467
542.43	1.469
542.64	1.467
542.84	1.470
543.05	1.473
543.26	1.472
543.46	1.475
543.67	1.477
543.88	1.475
544.08	1.477
544.29	1.475
544.50	1.474
544.70	1.475
544.91	1.473
545.12	1.467
545.32	1.465
545.53	1.465
545.74	1.466
545.94	1.468
546.15	1.472
546.35	1.474
546.56	1.469
546.77	1.470
546.97	1.467
547.18	1.464
547.39	1.463
547.59	1.460
547.80	1.463
548.01	1.459
548.21	1.457
548.42	1.459
548.62	1.459
548.83	1.455
549.04	1.456
549.24	1.457
549.45	1.464
549.65	1.463
549.86	1.459
550.07	1.460
550.27	1.458
550.48	1.457
550.69	1.458
550.89	1.465
551.10	1.461
551.30	1.459
551.51	1.463
551.72	1.465
551.92	1.465
552.13	1.463
552.33	1.466
552.54	1.471
552.75	1.467
552.95	1.466
553.16	1.466
553.36	1.462
553.57	1.458
553.78	1.454
553.98	1.456
554.19	1.459
554.39	1.455
554.60	1.451
554.80	1.448
555.01	1.449
555.22	1.447
555.42	1.449
555.63	1.452
555.83	1.453
556.04	1.452
556.25	1.452
556.45	1.451
556.66	1.449
556.86	1.447
557.07	1.450
557.27	1.452
557.48	1.452
557.68	1.452
557.89	1.457
558.10	1.456
558.30	1.452
558.51	1.455
558.71	1.454
558.92	1.456
559.12	1.462
559.33	1.458
559.54	1.456
559.74	1.453
559.95	1.454
560.15	1.452
560.36	1.448
560.56	1.448
560.77	1.449
560.97	1.448
561.18	1.449
561.38	1.447
561.59	1.446
561.79	1.448
562.00	1.447
562.21	1.444
562.41	1.445
562.62	1.446
562.82	1.443
563.03	1.445
563.23	1.443
563.44	1.437
563.64	1.439
563.85	1.441
564.05	1.441
564.26	1.441
564.46	1.438
564.67	1.441
564.87	1.441
565.08	1.442
565.28	1.441
565.49	1.443
565.69	1.444
565.90	1.444
566.10	1.446
566.31	1.450
566.51	1.448
566.72	1.442
566.92	1.441
567.13	1.439
567.33	1.438
567.54	1.441
567.74	1.442
567.95	1.441
568.15	1.439
568.36	1.442
568.56	1.439
568.77	1.442
568.97	1.442
569.18	1.444
569.38	1.443
569.59	1.445
569.79	1.440
570.00	1.441
570.20	1.439
570.41	1.436
570.61	1.432
570.82	1.434
571.02	1.438
571.23	1.437
571.43	1.444
571.64	1.445
571.84	1.445
572.05	1.447
572.25	1.444
572.45	1.444
572.66	1.445
572.86	1.446
573.07	1.447
573.27	1.445
573.48	1.443
573.68	1.443
573.89	1.442
574.09	1.445
574.30	1.441
574.50	1.437
574.70	1.439
574.91	1.439
575.11	1.443
575.32	1.442
575.52	1.443
575.73	1.438
575.93	1.435
576.14	1.432
576.34	1.433
576.54	1.435
576.75	1.437
576.95	1.435
577.16	1.436
577.36	1.431
577.57	1.433
577.77	1.433
577.97	1.431
578.18	1.430
578.38	1.430
578.59	1.429
578.79	1.430
579.00	1.430
579.20	1.431
579.40	1.425
579.61	1.428
579.81	1.428
580.02	1.426
580.22	1.426
580.42	1.427
580.63	1.425
580.83	1.424
581.04	1.419
581.24	1.419
581.45	1.416
581.65	1.418
581.85	1.420
582.06	1.420
582.26	1.419
582.47	1.418
582.67	1.419
582.87	1.419
583.08	1.418
583.28	1.419
583.48	1.418
583.69	1.419
583.89	1.420
584.10	1.420
584.30	1.421
584.50	1.421
584.71	1.422
584.91	1.423
585.12	1.422
585.32	1.425
585.52	1.423
585.73	1.426
585.93	1.425
586.13	1.424
586.34	1.422
586.54	1.426
586.75	1.428
586.95	1.426
587.15	1.427
587.36	1.431
587.56	1.429
587.76	1.429
587.97	1.429
588.17	1.428
588.37	1.430
588.58	1.431
588.78	1.431
588.98	1.429
589.19	1.429
589.39	1.431
589.60	1.429
589.80	1.428
590.00	1.427
590.21	1.427
590.41	1.424
590.61	1.424
590.82	1.421
591.02	1.417
591.22	1.416
591.43	1.418
591.63	1.420
591.83	1.424
592.04	1.421
592.24	1.417
592.44	1.417
592.65	1.416
592.85	1.417
593.05	1.414
593.26	1.415
593.46	1.412
593.66	1.414
593.86	1.417
594.07	1.418
594.27	1.417
594.47	1.415
594.68	1.415
594.88	1.419
595.08	1.420
595.29	1.422
595.49	1.423
595.69	1.421
595.90	1.418
596.10	1.416
596.30	1.419
596.50	1.421
596.71	1.417
596.91	1.418
597.11	1.416
597.32	1.419
597.52	1.418
597.72	1.421
597.93	1.418
598.13	1.417
598.33	1.417
598.53	1.417
598.74	1.419
598.94	1.420
599.14	1.421
599.35	1.423
599.55	1.424
599.75	1.421
599.95	1.422
600.16	1.422
600.36	1.423
600.56	1.422
600.76	1.425
600.97	1.426
601.17	1.424
601.37	1.424
601.58	1.424
601.78	1.424
601.98	1.425
602.18	1.427
602.39	1.427
602.59	1.429
602.79	1.432
602.99	1.430
603.20	1.431
603.40	1.431
603.60	1.429
603.80	1.430
604.01	1.433
604.21	1.435
604.41	1.435
604.61	1.435
604.82	1.437
605.02	1.435
605.22	1.437
605.42	1.438
605.62	1.439
605.83	1.438
606.03	1.441
606.23	1.438
606.43	1.438
606.64	1.439
606.84	1.436
607.04	1.433
607.24	1.434
607.45	1.431
607.65	1.431
607.85	1.430
608.05	1.431
608.25	1.429
608.46	1.429
608.66	1.430
608.86	1.429
609.06	1.427
609.26	1.428
609.47	1.429
609.67	1.428
609.87	1.429
610.07	1.430
610.28	1.428
610.48	1.431
610.68	1.426
610.88	1.427
611.08	1.427
611.29	1.428
611.49	1.429
611.69	1.430
611.89	1.430
612.09	1.429
612.29	1.428
612.50	1.430
612.70	1.429
612.90	1.428
613.10	1.430
613.30	1.431
613.51	1.433
613.71	1.432
613.91	1.432
614.11	1.431
614.31	1.433
614.51	1.432
614.72	1.433
614.92	1.434
615.12	1.437
615.32	1.437
615.52	1.438
615.72	1.439
615.93	1.438
616.13	1.435
616.33	1.438
616.53	1.441
616.73	1.439
616.93	1.438
617.14	1.437
617.34	1.434
617.54	1.434
617.74	1.432
617.94	1.434
618.14	1.432
618.34	1.432
618.55	1.431
618.75	1.432
618.95	1.429
619.15	1.431
619.35	1.428
619.55	1.430
619.75	1.428
619.96	1.427
620.16	1.429
620.36	1.431
620.56	1.430
620.76	1.427
620.96	1.427
621.16	1.428
621.36	1.426
621.57	1.427
621.77	1.429
621.97	1.429
622.17	1.429
622.37	1.431
622.57	1.433
622.77	1.434
622.97	1.433
623.18	1.434
623.38	1.433
623.58	1.433
623.78	1.434
623.98	1.434
624.18	1.433
624.38	1.433
624.58	1.430
624.78	1.429
624.98	1.428
625.19	1.428
625.39	1.429
625.59	1.429
625.79	1.429
625.99	1.426
626.19	1.429
626.39	1.426
626.59	1.429
626.79	1.429
626.99	1.429
627.19	1.430
627.40	1.429
627.60	1.428
627.80	1.428
628.00	1.428
628.20	1.428
628.40	1.428
628.60	1.428
628.80	1.430
629.00	1.430
629.20	1.432
629.40	1.432
629.60	1.430
629.80	1.433
630.00	1.434
630.20	1.436
630.41	1.433
630.61	1.435
630.81	1.431
631.01	1.430
631.21	1.432
631.41	1.432
631.61	1.434
631.81	1.436
632.01	1.435
632.21	1.435
632.41	1.439
632.61	1.436
632.81	1.437
633.01	1.440
633.21	1.440
633.41	1.442
633.61	1.443
633.81	1.444
634.01	1.445
634.21	1.443
634.41	1.442
634.61	1.443
634.81	1.445
635.01	1.444
635.22	1.441
635.42	1.442
635.62	1.441
635.82	1.442
636.02	1.441
636.22	1.443
636.42	1.440
636.62	1.440
636.82	1.440
637.02	1.442
637.22	1.440
637.42	1.441
637.62	1.439
637.82	1.437
638.02	1.436
638.22	1.434
638.42	1.436
638.62	1.439
638.82	1.439
639.02	1.439
639.22	1.441
639.42	1.442
639.62	1.439
639.82	1.441
640.02	1.440
640.22	1.439
640.42	1.438
640.62	1.440
640.82	1.437
641.02	1.438
641.22	1.438
641.42	1.439
641.61	1.441
641.81	1.444
642.01	1.445
642.21	1.445
642.41	1.448
642.61	1.445
642.81	1.444
643.01	1.445
643.21	1.443
643.41	1.443
643.61	1.445
643.81	1.447
644.01	1.444
644.21	1.446
644.41	1.447
644.61	1.449
644.81	1.450
645.01	1.451
645.21	1.452
645.41	1.451
645.61	1.450
645.81	1.447
646.01	1.446
646.21	1.444
646.40	1.445
646.60	1.442
646.80	1.442
647.00	1.442
647.20	1.441
647.40	1.442
647.60	1.442
647.80	1.442
648.00	1.442
648.20	1.442
648.40	1.441
648.60	1.443
648.80	1.442
649.00	1.442
649.20	1.439
649.39	1.440
649.59	1.438
649.79	1.439
649.99	1.440
650.19	1.438
650.39	1.441
650.59	1.442
650.79	1.442
650.99	1.442
651.19	1.441
651.39	1.441
651.58	1.442
651.78	1.440
651.98	1.441
652.18	1.439
652.38	1.439
652.58	1.439
652.78	1.436
652.98	1.436
653.18	1.437
653.38	1.441
653.57	1.438
653.77	1.444
653.97	1.443
654.17	1.444
654.37	1.447
654.57	1.446
654.77	1.445
654.97	1.447
655.16	1.449
655.36	1.448
655.56	1.448
655.76	1.447
655.96	1.448
656.16	1.449
656.36	1.451
656.56	1.451
656.75	1.454
656.95	1.455
657.15	1.457
657.35	1.455
657.55	1.454
657.75	1.456
657.95	1.453
658.14	1.453
658.34	1.450
658.54	1.447
658.74	1.447
658.94	1.448
659.14	1.448
659.34	1.449
659.53	1.449
659.73	1.451
659.93	1.452
660.13	1.453
660.33	1.450
660.53	1.450
660.72	1.451
660.92	1.447
661.12	1.447
661.32	1.446
661.52	1.447
661.72	1.448
661.91	1.447
662.11	1.446
662.31	1.448
662.51	1.449
662.71	1.450
662.90	1.449
663.10	1.450
663.30	1.447
663.50	1.447
663.70	1.448
663.90	1.447
664.09	1.445
664.29	1.445
664.49	1.447
664.69	1.446
664.89	1.443
665.08	1.444
665.28	1.447
665.48	1.444
665.68	1.445
665.88	1.442
666.07	1.443
666.27	1.442
666.47	1.441
666.67	1.441
666.87	1.442
667.06	1.443
667.26	1.444
667.46	1.448
667.66	1.447
667.85	1.448
668.05	1.449
668.25	1.448
668.45	1.448
668.65	1.448
668.84	1.450
669.04	1.453
669.24	1.453
669.44	1.453
669.63	1.454
669.83	1.457
670.03	1.459
670.23	1.459
670.42	1.460
670.62	1.461
670.82	1.459
671.02	1.459
671.22	1.458
671.41	1.456
671.61	1.456
671.81	1.458
672.01	1.457
672.20	1.457
672.40	1.459
672.60	1.459
672.80	1.458
672.99	1.458
673.19	1.457
673.39	1.455
673.58	1.453
673.78	1.454
673.98	1.453
674.18	1.452
674.37	1.452
674.57	1.452
674.77	1.450
674.97	1.451
675.16	1.454
675.36	1.454
675.56	1.456
675.75	1.454
675.95	1.454
676.15	1.454
676.35	1.453
676.54	1.454
676.74	1.455
676.94	1.457
677.13	1.458
677.33	1.457
677.53	1.461
677.73	1.463
677.92	1.463
678.12	1.463
678.32	1.463
678.51	1.462
678.71	1.463
678.91	1.464
679.11	1.466
679.30	1.466
679.50	1.467
679.70	1.468
679.89	1.467
680.09	1.466
680.29	1.469
680.48	1.471
680.68	1.470
680.88	1.468
681.07	1.466
681.27	1.466
681.47	1.465
681.66	1.466
681.86	1.463
682.06	1.463
682.25	1.463
682.45	1.461
682.65	1.462
682.84	1.461
683.04	1.460
683.24	1.457
683.43	1.458
683.63	1.457
683.83	1.454
684.02	1.455
684.22	1.458
684.42	1.455
684.61	1.454
684.81	1.453
685.01	1.455
685.20	1.455
685.40	1.455
685.60	1.458
685.79	1.457
685.99	1.458
686.19	1.459
686.38	1.458
686.58	1.460
686.77	1.462
686.97	1.462
687.17	1.461
687.36	1.463
687.56	1.464
687.76	1.464
687.95	1.463
688.15	1.463
688.34	1.462
688.54	1.461
688.74	1.460
688.93	1.460
689.13	1.462
689.33	1.464
689.52	1.465
689.72	1.461
689.91	1.464
690.11	1.462
690.31	1.460
690.50	1.463
690.70	1.461
690.89	1.460
691.09	1.460
691.29	1.464
691.48	1.464
691.68	1.461
691.87	1.463
692.07	1.465
692.27	1.466
692.46	1.467
692.66	1.468
692.85	1.470
693.05	1.474
693.25	1.472
693.44	1.469
693.64	1.468
693.83	1.471
694.03	1.470
694.22	1.471
694.42	1.472
694.62	1.471
694.81	1.473
695.01	1.472
695.20	1.471
695.40	1.472
695.59	1.470
695.79	1.470
695.99	1.471
696.18	1.471
696.38	1.469
696.57	1.467
696.77	1.469
696.96	1.469
697.16	1.465
697.36	1.464
697.55	1.466
697.75	1.465
697.94	1.466
698.14	1.466
698.33	1.467
698.53	1.468
698.72	1.468
698.92	1.465
699.11	1.465
699.31	1.467
699.51	1.465
699.70	1.466
699.90	1.466
700.09	1.462
700.29	1.460
700.48	1.460
700.68	1.461
700.87	1.458
701.07	1.461
701.26	1.462
701.46	1.463
701.65	1.463
701.85	1.464
702.04	1.464
702.24	1.462
702.43	1.462
702.63	1.463
702.82	1.462
703.02	1.464
703.21	1.465
703.41	1.463
703.60	1.465
703.80	1.465
703.99	1.467
704.19	1.469
704.38	1.471
704.58	1.472
704.77	1.473
704.97	1.473
705.16	1.471
705.36	1.472
705.55	1.474
705.75	1.473
705.94	1.473
706.14	1.474
706.33	1.475
706.53	1.475
706.72	1.474
706.92	1.475
707.11	1.475
707.31	1.475
707.50	1.477
707.70	1.474
707.89	1.473
708.09	1.472
708.28	1.474
708.48	1.472
708.67	1.471
708.86	1.471
709.06	1.470
709.25	1.467
709.45	1.466
709.64	1.465
709.84	1.466
710.03	1.465
710.23	1.463
710.42	1.464
710.62	1.464
710.81	1.466
711.00	1.467
711.20	1.466
711.39	1.468
711.59	1.466
711.78	1.468
711.98	1.469
712.17	1.467
712.37	1.468
712.56	1.469
712.75	1.471
712.95	1.471
713.14	1.471
713.34	1.473
713.53	1.471
713.73	1.471
713.92	1.472
714.11	1.474
714.31	1.476
714.50	1.477
714.70	1.478
714.89	1.477
715.08	1.477
715.28	1.479
715.47	1.477
715.67	1.479
715.86	1.478
716.06	1.481
716.25	1.483
716.44	1.481
716.64	1.481
716.83	1.483
717.03	1.485
717.22	1.485
717.41	1.486
717.61	1.485
717.80	1.487
717.99	1.484
718.19	1.480
718.38	1.479
718.58	1.476
718.77	1.473
718.96	1.473
719.16	1.473
719.35	1.472
719.55	1.474
719.74	1.473
719.93	1.473
720.13	1.473
720.32	1.473
720.51	1.477
720.71	1.477
720.90	1.474
721.10	1.473
721.29	1.473
721.48	1.472
721.68	1.475
721.87	1.475
722.06	1.476
722.26	1.478
722.45	1.478
722.64	1.479
722.84	1.481
723.03	1.485
723.22	1.483
723.42	1.485
723.61	1.482
723.80	1.483
724.00	1.485
724.19	1.482
724.38	1.481
724.58	1.478
724.77	1.478
724.96	1.479
725.16	1.479
725.35	1.481
725.54	1.484
725.74	1.485
725.93	1.484
726.12	1.485
726.32	1.487
726.51	1.487
726.70	1.488
726.90	1.488
727.09	1.486
727.28	1.489
727.48	1.490
727.67	1.491
727.86	1.493
728.06	1.492
728.25	1.494
728.44	1.493
728.64	1.494
728.83	1.494
729.02	1.494
729.21	1.494
729.41	1.495
729.60	1.491
729.79	1.491
729.99	1.490
730.18	1.487
730.37	1.486
730.56	1.486
730.76	1.485
730.95	1.485
731.14	1.484
731.34	1.480
731.53	1.477
731.72	1.476
731.91	1.472
732.11	1.472
732.30	1.473
732.49	1.473
732.69	1.474
732.88	1.473
733.07	1.472
733.26	1.472
733.46	1.472
733.65	1.472
733.84	1.472
734.03	1.471
734.23	1.473
734.42	1.475
734.61	1.476
734.80	1.477
735.00	1.476
735.19	1.476
735.38	1.476
735.57	1.479
735.77	1.482
735.96	1.485
736.15	1.485
736.34	1.483
736.54	1.480
736.73	1.481
736.92	1.481
737.11	1.482
737.31	1.484
737.50	1.483
737.69	1.484
737.88	1.486
738.07	1.487
738.27	1.489
738.46	1.490
738.65	1.490
738.84	1.488
739.04	1.485
739.23	1.485
739.42	1.485
739.61	1.485
739.80	1.483
740.00	1.484
740.19	1.484
740.38	1.483
740.57	1.488
740.76	1.488
740.96	1.488
741.15	1.490
741.34	1.487
741.53	1.489
741.72	1.488
741.92	1.486
742.11	1.489
742.30	1.488
742.49	1.487
742.68	1.488
742.88	1.488
743.07	1.490
743.26	1.493
743.45	1.492
743.64	1.494
743.84	1.492
744.03	1.491
744.22	1.493
744.41	1.495
744.60	1.491
744.79	1.494
744.99	1.492
745.18	1.491
745.37	1.492
745.56	1.492
745.75	1.492
745.94	1.493
746.14	1.491
746.33	1.492
746.52	1.491
746.71	1.491
746.90	1.491
747.09	1.491
747.28	1.492
747.48	1.492
747.67	1.491
747.86	1.492
748.05	1.492
748.24	1.490
748.43	1.489
748.62	1.491
748.82	1.489
749.01	1.491
749.20	1.490
749.39	1.490
749.58	1.486
749.77	1.487
749.96	1.486
750.16	1.487
750.35	1.484
750.54	1.482
750.73	1.482
750.92	1.483
751.11	1.486
751.30	1.485
751.49	1.487
751.68	1.485
751.88	1.485
752.07	1.485
752.26	1.487
752.45	1.487
752.64	1.486
752.83	1.485
753.02	1.486
753.21	1.487
753.40	1.486
753.60	1.490
753.79	1.489
753.98	1.490
754.17	1.492
754.36	1.494
754.55	1.496
754.74	1.497
754.93	1.496
755.12	1.494
755.31	1.494
755.50	1.494
755.70	1.495
755.89	1.496
756.08	1.495
756.27	1.493
756.46	1.494
756.65	1.496
756.84	1.497
757.03	1.493
757.22	1.493
757.41	1.495
757.60	1.494
757.79	1.493
757.98	1.492
758.17	1.490
758.36	1.491
758.56	1.491
758.75	1.491
758.94	1.490
759.13	1.490
759.32	1.490
759.51	1.488
759.70	1.487
759.89	1.488
760.08	1.488
760.27	1.490
760.46	1.492
760.65	1.490
760.84	1.491
761.03	1.494
761.22	1.493
761.41	1.492
761.60	1.491
761.79	1.492
761.98	1.491
762.17	1.491
762.36	1.490
762.55	1.492
762.74	1.492
762.93	1.493
763.12	1.490
763.31	1.489
763.50	1.491
763.69	1.494
763.88	1.493
764.07	1.494
764.26	1.495
764.45	1.494
764.64	1.496
764.83	1.494
765.02	1.495
765.21	1.498
765.40	1.497
765.59	1.499
765.78	1.498
765.97	1.498
766.16	1.498
766.35	1.498
766.54	1.496
766.73	1.499
766.92	1.499
767.11	1.502
767.30	1.500
767.49	1.499
767.68	1.497
767.87	1.497
768.06	1.497
768.25	1.496
768.44	1.496
768.63	1.496
768.82	1.496
769.01	1.493
769.20	1.491
769.39	1.492
769.58	1.491
769.77	1.494
769.96	1.499
770.15	1.497
770.34	1.499
770.53	1.501
770.72	1.497
770.91	1.496
771.10	1.497
771.29	1.500
771.47	1.501
771.66	1.502
771.85	1.502
772.04	1.502
772.23	1.501
772.42	1.503
772.61	1.501
772.80	1.502
772.99	1.503
773.18	1.502
773.37	1.503
773.56	1.501
773.75	1.498
773.94	1.497
774.13	1.498
774.31	1.496
774.50	1.494
774.69	1.497
774.88	1.499
775.07	1.497
775.26	1.495
775.45	1.494
775.64	1.493
775.83	1.494
776.02	1.495
776.21	1.497
776.40	1.495
776.58	1.498
776.77	1.497
776.96	1.496
777.15	1.498
777.34	1.500
777.53	1.502
777.72	1.503
777.91	1.503
778.10	1.505
778.28	1.505
778.47	1.506
778.66	1.505
778.85	1.506
779.04	1.508
779.23	1.508
779.42	1.511
779.61	1.511
779.79	1.510
779.98	1.509
780.17	1.508
780.36	1.509
780.55	1.508
780.74	1.509
780.93	1.510
781.12	1.511
781.30	1.510
781.49	1.509
781.68	1.509
781.87	1.509
782.06	1.507
782.25	1.506
782.44	1.506
782.62	1.507
782.81	1.506
783.00	1.506
783.19	1.509
783.38	1.507
783.57	1.507
783.75	1.506
783.94	1.507
784.13	1.505
784.32	1.505
784.51	1.506
784.70	1.504
784.88	1.505
785.07	1.503
785.26	1.502
785.45	1.501
785.64	1.502
785.83	1.502
786.01	1.502
786.20	1.503
786.39	1.504
786.58	1.503
786.77	1.503
786.95	1.502
787.14	1.500
787.33	1.500
787.52	1.498
787.71	1.498
787.90	1.499
788.08	1.501
788.27	1.501
788.46	1.499
788.65	1.499
788.84	1.498
789.02	1.498
789.21	1.499
789.40	1.499
789.59	1.498
789.77	1.498
789.96	1.497
790.15	1.497
790.34	1.495
790.53	1.496
790.71	1.496
790.90	1.497
791.09	1.499
791.28	1.499
791.46	1.503
791.65	1.503
791.84	1.504
792.03	1.502
792.22	1.501
792.40	1.504
792.59	1.506
792.78	1.506
792.97	1.508
793.15	1.509
793.34	1.509
793.53	1.510
793.72	1.510
793.90	1.512
794.09	1.514
794.28	1.515
794.47	1.514
794.65	1.513
794.84	1.514
795.03	1.514
795.22	1.514
795.40	1.511
795.59	1.511
795.78	1.511
795.97	1.513
796.15	1.511
796.34	1.511
796.53	1.511
796.71	1.512
796.90	1.511
797.09	1.510
797.28	1.510
797.46	1.508
797.65	1.509
797.84	1.510
798.02	1.507
798.21	1.506
798.40	1.507
798.59	1.507
798.77	1.505
798.96	1.504
799.15	1.502
799.33	1.503
799.52	1.504
799.71	1.502
799.90	1.502
800.08	1.502
800.27	1.503
800.46	1.503
800.64	1.504
800.83	1.502
801.02	1.504
801.20	1.505
801.39	1.507
801.58	1.505
801.76	1.505
801.95	1.506
802.14	1.506
802.32	1.505
802.51	1.506
802.70	1.506
802.88	1.505
803.07	1.506
803.26	1.508
803.44	1.508
803.63	1.510
803.82	1.509
804.00	1.509
804.19	1.507
804.38	1.507
804.56	1.506
804.75	1.508
804.94	1.505
805.12	1.504
805.31	1.503
805.50	1.504
805.68	1.502
805.87	1.503
806.06	1.505
806.24	1.505
806.43	1.506
806.62	1.507
806.80	1.509
806.99	1.510
807.17	1.507
807.36	1.506
807.55	1.506
807.73	1.506
807.92	1.507
808.11	1.508
808.29	1.507
808.48	1.507
808.66	1.507
808.85	1.508
809.04	1.509
809.22	1.508
809.41	1.510
809.59	1.510
809.78	1.507
809.97	1.507
810.15	1.507
810.34	1.505
810.53	1.505
810.71	1.504
810.90	1.503
811.08	1.506
811.27	1.506
811.45	1.504
811.64	1.503
811.83	1.503
812.01	1.502
812.20	1.502
812.38	1.504
812.57	1.502
812.76	1.501
812.94	1.501
813.13	1.502
813.31	1.502
813.50	1.503
813.68	1.507
813.87	1.508
814.06	1.508
814.24	1.507
814.43	1.508
814.61	1.510
814.80	1.510
814.98	1.511
815.17	1.513
815.36	1.513
815.54	1.512
815.73	1.510
815.91	1.510
816.10	1.509
816.28	1.508
816.47	1.508
816.65	1.508
816.84	1.509
817.03	1.509
817.21	1.508
817.40	1.506
817.58	1.505
817.77	1.503
817.95	1.502
818.14	1.502
818.32	1.500
818.51	1.501
818.69	1.501
818.88	1.503
819.06	1.503
819.25	1.502
819.43	1.505
819.62	1.506
819.80	1.505
819.99	1.506
820.18	1.509
820.36	1.512
820.55	1.512
820.73	1.513
820.92	1.514
821.10	1.514
821.29	1.516
821.47	1.514
821.66	1.516
821.84	1.517
822.03	1.518
822.21	1.518
822.40	1.517
822.58	1.518
822.77	1.515
822.95	1.515
823.14	1.516
823.32	1.516
823.50	1.516
823.69	1.517
823.87	1.516
824.06	1.513
824.24	1.513
824.43	1.514
824.61	1.512
824.80	1.511
824.98	1.510
825.17	1.510
825.35	1.512
825.54	1.512
825.72	1.512
825.91	1.511
826.09	1.512
826.28	1.513
826.46	1.512
826.64	1.512
826.83	1.512
827.01	1.512
827.20	1.511
827.38	1.513
827.57	1.512
827.75	1.516
827.94	1.516
828.12	1.514
828.31	1.513
828.49	1.515
828.67	1.514
828.86	1.515
829.04	1.514
829.23	1.514
829.41	1.514
829.60	1.514
829.78	1.513
829.96	1.512
830.15	1.511
830.33	1.511
830.52	1.514
830.70	1.515
830.88	1.513
831.07	1.516
831.25	1.516
831.44	1.517
831.62	1.515
831.81	1.517
831.99	1.517
832.17	1.517
832.36	1.515
832.54	1.518
832.73	1.518
832.91	1.518
833.09	1.517
833.28	1.516
833.46	1.519
833.65	1.522
833.83	1.521
834.01	1.521
834.20	1.520
834.38	1.519
834.56	1.518
834.75	1.519
834.93	1.517
835.12	1.517
835.30	1.517
835.48	1.518
835.67	1.516
835.85	1.517
836.03	1.518
836.22	1.520
836.40	1.517
836.59	1.518
836.77	1.517
836.95	1.516
837.14	1.516
837.32	1.518
837.50	1.518
837.69	1.518
837.87	1.518
838.05	1.516
838.24	1.515
838.42	1.515
838.60	1.517
838.79	1.515
838.97	1.514
839.15	1.514
839.34	1.514
839.52	1.515
839.70	1.514
839.89	1.514
840.07	1.515
840.25	1.518
840.44	1.516
840.62	1.519
840.80	1.518
840.99	1.518
841.17	1.516
841.35	1.514
841.54	1.516
841.72	1.517
841.90	1.516
842.09	1.515
842.27	1.517
842.45	1.516
842.64	1.519
842.82	1.520
843.00	1.518
843.19	1.518
843.37	1.519
843.55	1.519
843.73	1.518
843.92	1.517
844.10	1.516
844.28	1.516
844.47	1.515
844.65	1.514
844.83	1.514
845.01	1.513
845.20	1.510
845.38	1.511
845.56	1.514
845.75	1.516
845.93	1.519
846.11	1.518
846.29	1.516
846.48	1.515
846.66	1.516
846.84	1.517
847.02	1.518
847.21	1.517
847.39	1.515
847.57	1.516
847.76	1.515
847.94	1.514
848.12	1.514
848.30	1.517
848.49	1.519
848.67	1.521
848.85	1.524
849.03	1.528
849.22	1.527
849.40	1.524
849.58	1.524
849.76	1.522
849.95	1.521
850.13	1.523
850.31	1.523
850.49	1.523
850.67	1.523
850.86	1.525
851.04	1.526
851.22	1.527
851.40	1.527
851.59	1.528
851.77	1.530
851.95	1.531
852.13	1.527
852.31	1.528
852.50	1.527
852.68	1.529
852.86	1.528
853.04	1.530
853.23	1.529
853.41	1.529
853.59	1.528
853.77	1.528
853.95	1.531
854.14	1.532
854.32	1.531
854.50	1.531
854.68	1.530
854.86	1.530
855.04	1.528
855.23	1.527
855.41	1.526
855.59	1.525
855.77	1.525
855.95	1.526
856.14	1.526
856.32	1.524
856.50	1.521
856.68	1.523
856.86	1.524
857.04	1.526
857.23	1.525
857.41	1.527
857.59	1.527
857.77	1.523
857.95	1.522
858.13	1.521
858.32	1.521
858.50	1.520
858.68	1.520
858.86	1.524
859.04	1.525
859.22	1.528
859.41	1.525
859.59	1.527
859.77	1.528
859.95	1.527
860.13	1.529
860.31	1.527
860.49	1.525
860.68	1.523
860.86	1.522
861.04	1.525
861.22	1.521
861.40	1.523
861.58	1.525
861.76	1.525
861.94	1.526
862.13	1.527
862.31	1.527
862.49	1.529
862.67	1.529
862.85	1.530
863.03	1.528
863.21	1.532
863.39	1.530
863.57	1.529
863.76	1.530
863.94	1.531
864.12	1.532
864.30	1.533
864.48	1.531
864.66	1.532
864.84	1.532
865.02	1.534
865.20	1.534
865.38	1.536
865.57	1.536
865.75	1.537
865.93	1.536
866.11	1.536
866.29	1.534
866.47	1.532
866.65	1.531
866.83	1.531
867.01	1.530
867.19	1.526
867.37	1.526
867.55	1.528
867.73	1.526
867.92	1.527
868.10	1.526
868.28	1.528
868.46	1.527
868.64	1.526
868.82	1.524
869.00	1.524
869.18	1.521
869.36	1.521
869.54	1.518
869.72	1.520
869.90	1.519
870.08	1.521
870.26	1.520
870.44	1.519
870.62	1.519
870.80	1.519
870.98	1.522
871.16	1.520
871.34	1.518
871.53	1.519
871.71	1.518
871.89	1.517
872.07	1.518
872.25	1.518
872.43	1.516
872.61	1.519
872.79	1.519
872.97	1.520
873.15	1.521
873.33	1.523
873.51	1.520
873.69	1.522
873.87	1.520
874.05	1.522
874.23	1.523
874.41	1.524
874.59	1.523
874.77	1.526
874.95	1.528
875.13	1.528
875.31	1.529
875.49	1.528
875.67	1.528
875.85	1.527
876.03	1.526
876.21	1.527
876.39	1.528
876.57	1.529
876.75	1.529
876.93	1.530
877.11	1.530
877.29	1.530
877.47	1.532
877.65	1.531
877.82	1.532
878.00	1.532
878.18	1.530
878.36	1.532
878.54	1.532
878.72	1.533
878.90	1.533
879.08	1.533
879.26	1.533
879.44	1.532
879.62	1.535
879.80	1.533
879.98	1.535
880.16	1.534
880.34	1.532
880.52	1.530
880.70	1.530
880.88	1.529
881.06	1.526
881.24	1.526
881.42	1.526
881.59	1.525
881.77	1.527
881.95	1.528
882.13	1.526
882.31	1.527
882.49	1.526
882.67	1.529
882.85	1.528
883.03	1.529
883.21	1.532
883.39	1.530
883.57	1.532
883.75	1.531
883.92	1.531
884.10	1.534
884.28	1.533
884.46	1.533
884.64	1.534
884.82	1.535
885.00	1.534
885.18	1.537
885.36	1.535
885.54	1.535
885.71	1.535
885.89	1.536
886.07	1.535
886.25	1.534
886.43	1.533
886.61	1.533
886.79	1.530
886.97	1.530
887.15	1.530
887.32	1.531
887.50	1.532
887.68	1.532
887.86	1.530
888.04	1.532
888.22	1.531
888.40	1.532
888.57	1.532
888.75	1.533
888.93	1.531
889.11	1.534
889.29	1.533
889.47	1.535
889.65	1.535
889.82	1.534
890.00	1.534
890.18	1.531
890.36	1.532
890.54	1.533
890.72	1.535
890.90	1.534
891.07	1.534
891.25	1.535
891.43	1.537
891.61	1.539
891.79	1.537
891.97	1.538
892.14	1.536
892.32	1.540
892.50	1.541
892.68	1.541
892.86	1.541
893.03	1.542
893.21	1.542
893.39	1.542
893.57	1.544
893.75	1.544
893.93	1.547
894.10	1.548
894.28	1.550
894.46	1.549
894.64	1.550
894.82	1.548
894.99	1.546
895.17	1.545
895.35	1.546
895.53	1.548
895.71	1.551
895.88	1.551
896.06	1.549
896.24	1.547
896.42	1.546
896.59	1.545
896.77	1.546
896.95	1.548
897.13	1.547
897.31	1.549
897.48	1.550
897.66	1.550
897.84	1.551
898.02	1.551
898.19	1.550
898.37	1.549
898.55	1.550
898.73	1.552
898.91	1.553
899.08	1.551
899.26	1.551
899.44	1.551
899.62	1.553
899.79	1.554
899.97	1.555
900.15	1.554
900.33	1.554
900.50	1.553
900.68	1.551
900.86	1.551
901.04	1.549
901.21	1.548
901.39	1.547
901.57	1.546
901.74	1.547
901.92	1.546
902.10	1.546
902.28	1.545
902.45	1.543
902.63	1.542
902.81	1.542
902.99	1.542
903.16	1.540
903.34	1.539
903.52	1.538
903.69	1.539
903.87	1.541
904.05	1.540
904.22	1.539
904.40	1.540
904.58	1.541
904.76	1.542
904.93	1.542
905.11	1.543
905.29	1.542
905.46	1.542
905.64	1.541
905.82	1.542
905.99	1.543
906.17	1.543
906.35	1.543
906.53	1.543
906.70	1.544
906.88	1.545
907.06	1.543
907.23	1.544
907.41	1.544
907.59	1.545
907.76	1.544
907.94	1.545
908.12	1.544
908.29	1.544
908.47	1.540
908.65	1.540
908.82	1.538
909.00	1.539
909.18	1.537
909.35	1.539
909.53	1.540
909.71	1.542
909.88	1.543
910.06	1.544
910.23	1.543
910.41	1.542
910.59	1.540
910.76	1.543
910.94	1.544
911.12	1.543
911.29	1.544
911.47	1.545
911.65	1.544
911.82	1.545
912.00	1.545
912.17	1.548
912.35	1.550
912.53	1.550
912.70	1.550
912.88	1.551
913.06	1.552
913.23	1.551
913.41	1.550
913.58	1.550
913.76	1.550
913.94	1.552
914.11	1.549
914.29	1.547
914.46	1.548
914.64	1.546
914.82	1.546
914.99	1.543
915.17	1.543
915.34	1.546
915.52	1.545
915.70	1.547
915.87	1.545
916.05	1.543
916.22	1.544
916.40	1.544
916.57	1.542
916.75	1.541
916.93	1.540
917.10	1.537
917.28	1.538
917.45	1.537
917.63	1.539
917.80	1.541
917.98	1.544
918.16	1.542
918.33	1.544
918.51	1.544
918.68	1.547
918.86	1.546
919.03	1.543
919.21	1.543
919.39	1.542
919.56	1.543
919.74	1.544
919.91	1.543
920.09	1.543
920.26	1.545
920.44	1.545
920.61	1.546
920.79	1.548
920.96	1.545
921.14	1.544
921.31	1.543
921.49	1.543
921.67	1.543
921.84	1.543
922.02	1.541
922.19	1.540
922.37	1.539
922.54	1.541
922.72	1.541
922.89	1.540
923.07	1.542
923.24	1.541
923.42	1.541
923.59	1.543
923.77	1.542
923.94	1.541
924.12	1.541
924.29	1.540
924.47	1.540
924.64	1.543
924.82	1.543
924.99	1.544
925.17	1.545
925.34	1.544
925.52	1.544
925.69	1.543
925.87	1.543
926.04	1.543
926.22	1.544
926.39	1.543
926.57	1.545
926.74	1.544
926.91	1.542
927.09	1.542
927.26	1.542
927.44	1.544
927.61	1.546
927.79	1.548
927.96	1.549
928.14	1.550
928.31	1.550
928.49	1.551
928.66	1.551
928.84	1.549
929.01	1.550
929.18	1.549
929.36	1.550
929.53	1.547
929.71	1.548
929.88	1.548
930.06	1.549
930.23	1.550
930.41	1.551
930.58	1.550
930.75	1.548
930.93	1.547
931.10	1.546
931.28	1.543
931.45	1.542
931.63	1.540
931.80	1.543
931.97	1.540
932.15	1.539
932.32	1.538
932.50	1.540
932.67	1.537
932.84	1.537
933.02	1.540
933.19	1.541
933.37	1.538
933.54	1.537
933.71	1.536
933.89	1.535
934.06	1.533
934.24	1.536
934.41	1.537
934.58	1.540
934.76	1.540
934.93	1.545
935.11	1.544
935.28	1.545
935.45	1.543
935.63	1.544
935.80	1.546
935.98	1.548
936.15	1.547
936.32	1.549
936.50	1.551
936.67	1.548
936.84	1.552
937.02	1.551
937.19	1.555
937.36	1.556
937.54	1.553
937.71	1.555
937.89	1.555
938.06	1.557
938.23	1.555
938.41	1.552
938.58	1.551
938.75	1.553
938.93	1.552
939.10	1.553
939.27	1.553
939.45	1.552
939.62	1.550
939.79	1.555
939.97	1.553
940.14	1.554
940.31	1.553
940.49	1.553
940.66	1.556
940.83	1.553
941.01	1.555
941.18	1.555
941.35	1.553
941.53	1.550
941.70	1.549
941.87	1.545
942.05	1.548
942.22	1.547
942.39	1.548
942.57	1.549
942.74	1.545
942.91	1.542
943.08	1.537
943.26	1.536
943.43	1.533
943.60	1.534
943.78	1.532
943.95	1.535
944.12	1.533
944.29	1.536
944.47	1.537
944.64	1.532
944.81	1.536
944.99	1.536
945.16	1.540
945.33	1.537
945.50	1.541
945.68	1.542
945.85	1.543
946.02	1.541
946.20	1.540
946.37	1.539
946.54	1.543
946.71	1.544
946.89	1.546
947.06	1.545
947.23	1.547
947.40	1.547
947.58	1.545
947.75	1.546
947.92	1.542
948.09	1.537
948.27	1.542
948.44	1.537
948.61	1.537
948.78	1.533
948.96	1.533
949.13	1.531
949.30	1.531
949.47	1.530
949.65	1.529
949.82	1.531
949.99	1.535
950.16	1.533
950.33	1.539
950.51	1.538
950.68	1.537
950.85	1.539
951.02	1.542
951.20	1.543
951.37	1.547
951.54	1.550
951.71	1.553
951.88	1.551
952.06	1.554
952.23	1.553
952.40	1.555
952.57	1.556
952.74	1.561
952.92	1.558
953.09	1.560
953.26	1.562
953.43	1.562
953.60	1.557
953.77	1.558
953.95	1.558
954.12	1.561
954.29	1.556
954.46	1.556
954.63	1.552
954.81	1.553
954.98	1.550
955.15	1.553
955.32	1.557
955.49	1.556
955.66	1.559
955.84	1.564
956.01	1.570
956.18	1.571
956.35	1.569
956.52	1.573
956.69	1.576
956.87	1.573
957.04	1.576
957.21	1.580
957.38	1.582
957.55	1.576
957.72	1.569
957.89	1.577
958.07	1.575
958.24	1.578
958.41	1.577
958.58	1.571
958.75	1.563
958.92	1.558
959.09	1.562
959.26	1.561
959.44	1.560
959.61	1.554
959.78	1.550
959.95	1.548
960.12	1.548
960.29	1.546
960.46	1.548
960.63	1.543
960.81	1.543
960.98	1.539
961.15	1.544
961.32	1.545
961.49	1.539
961.66	1.545
961.83	1.539
962.00	1.536
962.17	1.539
962.34	1.543
962.52	1.544
962.69	1.538
962.86	1.534
963.03	1.533
963.20	1.535
963.37	1.533
963.54	1.529
963.71	1.525
963.88	1.522
964.05	1.526
964.22	1.527
964.39	1.525
964.56	1.527
964.74	1.526
964.91	1.531
965.08	1.537
965.25	1.527
965.42	1.530
965.59	1.538
965.76	1.539
965.93	1.537
966.10	1.537
966.27	1.537
966.44	1.533
966.61	1.534
966.78	1.534
966.95	1.541
967.12	1.545
967.29	1.550
967.46	1.548
967.63	1.543
967.80	1.542
967.97	1.544
968.14	1.547
968.32	1.543
968.49	1.540
968.66	1.539
968.83	1.542
969.00	1.536
969.17	1.534
969.34	1.532
969.51	1.529
969.68	1.529
969.85	1.529
970.02	1.532
970.19	1.535
970.36	1.536
970.53	1.537
970.70	1.539
970.87	1.542
971.04	1.546
971.21	1.549
971.38	1.552
971.55	1.549
971.72	1.547
971.89	1.551
972.06	1.556
972.23	1.555
972.40	1.559
972.57	1.567
972.74	1.567
972.91	1.563
973.07	1.571
973.24	1.572
973.41	1.579
973.58	1.576
973.75	1.575
973.92	1.571
974.09	1.578
974.26	1.576
974.43	1.570
974.60	1.571
974.77	1.571
974.94	1.569
975.11	1.573
975.28	1.574
975.45	1.573
975.62	1.573
975.79	1.571
975.96	1.565
976.13	1.568
976.30	1.556
976.47	1.566
976.64	1.560
976.80	1.561
976.97	1.562
977.14	1.569
977.31	1.570
977.48	1.575
977.65	1.567
977.82	1.573
977.99	1.571
978.16	1.569
978.33	1.569
978.50	1.573
978.67	1.570
978.83	1.567
979.00	1.560
979.17	1.556
979.34	1.556
979.51	1.559
979.68	1.557
979.85	1.564
980.02	1.565
980.19	1.569
980.36	1.571
980.52	1.576
980.69	1.573
980.86	1.569
981.03	1.565
981.20	1.558
981.37	1.560
981.54	1.558
981.71	1.555
981.88	1.554
982.04	1.551
982.21	1.548
982.38	1.545
982.55	1.550
982.72	1.555
982.89	1.559
983.06	1.565
983.22	1.561
983.39	1.559
983.56	1.561
983.73	1.551
983.90	1.550
984.07	1.541
984.24	1.546
984.40	1.547
984.57	1.545
984.74	1.552
984.91	1.548
985.08	1.544
985.25	1.546
985.41	1.542
985.58	1.551
985.75	1.554
985.92	1.561
986.09	1.567
986.26	1.566
986.42	1.570
986.59	1.570
986.76	1.568
986.93	1.573
987.10	1.567
987.27	1.576
987.43	1.579
987.60	1.579
987.77	1.571
987.94	1.576
988.11	1.573
988.27	1.576
988.44	1.577
988.61	1.587
988.78	1.593
988.95	1.590
989.11	1.581
989.28	1.587
989.45	1.586
989.62	1.584
989.79	1.579
989.95	1.573
990.12	1.563
990.29	1.562
990.46	1.553
990.62	1.555
990.79	1.565
990.96	1.566
991.13	1.562
991.30	1.569
991.46	1.572
991.63	1.572
991.80	1.566
991.97	1.566
992.13	1.568
992.30	1.563
992.47	1.573
992.64	1.573
992.80	1.569
992.97	1.566
993.14	1.568
993.31	1.558
993.47	1.563
993.64	1.573
993.81	1.588
993.98	1.598
994.14	1.587
994.31	1.578
994.48	1.572
994.64	1.582
994.81	1.570
994.98	1.568
995.15	1.574
995.31	1.574
995.48	1.573
995.65	1.574
995.82	1.584
995.98	1.584
996.15	1.595
996.32	1.594
996.48	1.589
996.65	1.592
996.82	1.607
996.99	1.606
997.15	1.605
997.32	1.593
997.49	1.593
997.65	1.607
997.82	1.602
997.99	1.606
998.15	1.604
998.32	1.610
998.49	1.604
998.65	1.606
998.82	1.608
998.99	1.600
999.15	1.599
999.32	1.586
999.49	1.576
999.65	1.570
999.82	1.575
999.99	1.578
1000.15	1.568
1000.32	1.564
1000.49	1.561
1000.65	1.559
1000.82	1.558
1000.99	1.562
1001.15	1.557
1001.32	1.560
1001.49	1.558
1001.65	1.541
1001.82	1.541
1001.99	1.550
1002.15	1.550
1002.32	1.550
1002.49	1.550
1002.65	1.545
1002.82	1.552
1002.99	1.561
1003.15	1.562
1003.32	1.550
1003.48	1.559
1003.65	1.558
1003.82	1.563
1003.98	1.551
1004.15	1.555
1004.32	1.559
1004.48	1.560
1004.65	1.558
1004.81	1.559
1004.98	1.562
1005.15	1.587
1005.31	1.589
1005.48	1.589
1005.64	1.586
1005.81	1.590
1005.98	1.600
1006.14	1.602
1006.31	1.613
1006.47	1.596
1006.64	1.590
1006.81	1.597
1006.97	1.593
1007.14	1.594
1007.30	1.596
1007.47	1.608
1007.63	1.599
1007.80	1.603
1007.97	1.600
1008.13	1.599
1008.30	1.605
1008.46	1.603
1008.63	1.598
1008.79	1.590
1008.96	1.592
1009.13	1.586
1009.29	1.583
1009.46	1.583
1009.62	1.578
1009.79	1.570
1009.95	1.579
1010.12	1.578
1010.28	1.579
1010.45	1.575
1010.62	1.580
1010.78	1.571
1010.95	1.582
1011.11	1.582
1011.28	1.572
1011.44	1.579
1011.61	1.583
1011.77	1.572
1011.94	1.570
1012.10	1.573
1012.27	1.589
1012.43	1.583
1012.60	1.584
1012.76	1.579
1012.93	1.592
1013.10	1.597
1013.26	1.599
1013.43	1.611
1013.59	1.618
1013.76	1.604
1013.92	1.609
1014.09	1.608
1014.25	1.605
1014.42	1.598
1014.58	1.596
1014.75	1.597
1014.91	1.594
1015.08	1.591
1015.24	1.585
1015.41	1.583
1015.57	1.572
1015.73	1.563
1015.90	1.559
1016.06	1.564
1016.23	1.568
1016.39	1.556
1016.56	1.560
1016.72	1.559
1016.89	1.546
1017.05	1.532
1017.22	1.554
1017.38	1.551
1017.55	1.560
1017.71	1.551
1017.88	1.560
1018.04	1.567
1018.21	1.569
1018.37	1.559
1018.53	1.576
1018.70	1.588
1018.86	1.601
1019.03	1.579
1019.19	1.588
1019.36	1.605
1019.52	1.621
1019.69	1.606
1019.85	1.599
1020.01	1.598
1020.18	1.584
1020.34	1.581
1020.51	1.606
1020.67	1.615
1020.84	1.621
1021.00	1.610
1021.16	1.610
1021.33	1.593
1021.49	1.584
1021.66	1.587
1021.82	1.595
1021.98	1.569
1022.15	1.577
1022.31	1.556
1022.48	1.588
1022.64	1.577
1022.80	1.553
1022.97	1.535
1023.13	1.544
1023.30	1.547
1023.46	1.551
1023.62	1.543
1023.79	1.550
1023.95	1.523
1024.12	1.507
1024.28	1.504
1024.44	1.492
1024.61	1.502
1024.77	1.512
1024.93	1.501
1025.10	1.513
1025.26	1.523
1025.43	1.541
1025.59	1.545
1025.75	1.544
1025.92	1.525
1026.08	1.528
1026.24	1.528
1026.41	1.515
1026.57	1.514
1026.73	1.509
1026.90	1.517
1027.06	1.530
1027.23	1.528
1027.39	1.554
1027.55	1.550
1027.72	1.558
1027.88	1.588
1028.04	1.587
1028.21	1.574
1028.37	1.603
1028.53	1.587
1028.70	1.566
1028.86	1.553
1029.02	1.551
1029.19	1.553
1029.35	1.570
1029.51	1.581
1029.67	1.581
1029.84	1.614
1030.00	1.611
1030.16	1.623
1030.33	1.594
1030.49	1.586
1030.65	1.603
1030.82	1.609
1030.98	1.619
1031.14	1.597
1031.31	1.570
1031.47	1.604
1031.63	1.613
1031.79	1.599
1031.96	1.594
1032.12	1.595
1032.28	1.622
1032.45	1.585
1032.61	1.594
1032.77	1.580
1032.93	1.581
1033.10	1.586
1033.26	1.584
1033.42	1.588
1033.58	1.572
1033.75	1.570
1033.91	1.575
1034.07	1.583
1034.24	1.575
1034.40	1.554
1034.56	1.570
1034.72	1.598
1034.89	1.546
1035.05	1.542
1035.21	1.528
1035.37	1.540
1035.54	1.535
1035.70	1.512
1035.86	1.538
1036.02	1.526
1036.19	1.545
1036.35	1.534
1036.51	1.515
1036.67	1.502
1036.83	1.499
1037.00	1.491
1037.16	1.495
1037.32	1.488
1037.48	1.487
1037.65	1.463
1037.81	1.479
1037.97	1.476
1038.13	1.462
1038.29	1.483
1038.46	1.478
1038.62	1.487
1038.78	1.493
1038.94	1.465
1039.10	1.457
1039.27	1.462
1039.43	1.467
1039.59	1.464
1039.75	1.469
1039.91	1.482
1040.08	1.470
1040.24	1.462
1040.40	1.518
1040.56	1.526
1040.72	1.520
1040.89	1.495
1041.05	1.546
1041.21	1.539
1041.37	1.514
1041.53	1.523
1041.69	1.548
1041.86	1.572
1042.02	1.573
1042.18	1.555
1042.34	1.619
1042.50	1.641
1042.66	1.634
1042.83	1.667
1042.99	1.707
1043.15	1.658
1043.31	1.712
1043.47	1.786
1043.63	1.780
1043.79	1.712
1043.96	1.703
1044.12	1.706
1044.28	1.778
1044.44	1.755
1044.60	1.806
1044.76	1.853
1044.92	1.883
1045.09	1.837
1045.25	1.752
1045.41	1.709
1045.57	1.426
1045.73	1.263
1045.89	-0.000
1046.05	-0.000
1046.21	-0.000
1046.38	1.581
1046.54	-0.000
1046.70	1.595
1046.86	1.152
>>>>>End Processed Spectral Data<<<<<
