SpectraSuite Data File
++++++++++++++++++++++++++++++++++++
Date: Mon May 06 14:18:15 CDT 2013
User: Students
Dark Spectrum Present: Yes
Reference Spectrum Present: Yes
Number of Sampled Component Spectra: 1
Spectrometers: USB4H00887
Integration Time (usec): 25000 (USB4H00887)
Spectra Averaged: 10 (USB4H00887)
Boxcar Smoothing: 10 (USB4H00887)
Correct for Electrical Dark: No (USB4H00887)
Strobe/Lamp Enabled: No (USB4H00887)
Correct for Detector Non-linearity: No (USB4H00887)
Correct for Stray Light: No (USB4H00887)
Number of Pixels in Processed Spectrum: 3648
>>>>>Begin Processed Spectral Data<<<<<
345.83	0.380
346.05	0.380
346.26	0.380
346.48	-0.327
346.70	0.088
346.92	-0.000
347.14	0.771
347.35	0.217
347.57	-0.826
347.79	0.101
348.01	-0.099
348.23	-0.067
348.44	-0.034
348.66	0.031
348.88	0.097
349.10	0.070
349.32	0.017
349.53	0.016
349.75	-0.028
349.97	0.077
350.19	0.144
350.41	0.345
350.62	0.335
350.84	0.754
351.06	-0.000
351.28	1.059
351.50	1.117
351.71	1.213
351.93	-0.000
352.15	-0.000
352.37	-0.000
352.58	-0.000
352.80	-0.000
353.02	-0.000
353.24	-0.000
353.46	-0.000
353.67	-0.000
353.89	-0.000
354.11	-0.000
354.33	-0.000
354.54	-0.000
354.76	-0.000
354.98	-0.000
355.20	-0.000
355.41	-0.000
355.63	-0.000
355.85	-0.000
356.07	-0.000
356.28	-0.000
356.50	1.981
356.72	1.797
356.94	-0.000
357.15	1.371
357.37	1.596
357.59	0.888
357.81	0.727
358.02	1.306
358.24	1.253
358.46	1.378
358.68	1.229
358.89	0.869
359.11	0.757
359.33	0.785
359.55	0.607
359.76	0.533
359.98	0.495
360.20	0.578
360.42	0.615
360.63	0.599
360.85	0.536
361.07	0.547
361.29	0.438
361.50	0.452
361.72	0.521
361.94	0.468
362.15	0.677
362.37	0.609
362.59	0.397
362.81	0.469
363.02	0.479
363.24	0.482
363.46	0.512
363.68	0.503
363.89	0.558
364.11	0.611
364.33	0.619
364.54	0.752
364.76	0.706
364.98	0.634
365.20	0.617
365.41	0.738
365.63	0.722
365.85	0.957
366.06	0.680
366.28	0.832
366.50	0.693
366.71	0.647
366.93	0.898
367.15	1.032
367.37	0.759
367.58	0.663
367.80	0.681
368.02	0.707
368.23	1.571
368.45	1.142
368.67	0.935
368.88	1.089
369.10	1.060
369.32	0.850
369.53	0.764
369.75	1.022
369.97	0.662
370.19	0.655
370.40	0.661
370.62	0.640
370.84	0.439
371.05	0.483
371.27	0.442
371.49	0.452
371.70	0.489
371.92	0.576
372.14	0.549
372.35	0.616
372.57	0.660
372.79	0.560
373.00	0.675
373.22	0.903
373.44	0.920
373.65	1.219
373.87	-0.000
374.09	-0.000
374.30	1.274
374.52	-0.000
374.74	-0.000
374.95	-0.000
375.17	-0.000
375.39	-0.000
375.60	-0.000
375.82	-0.000
376.04	-0.000
376.25	-0.000
376.47	-0.000
376.68	-0.000
376.90	-0.000
377.12	-0.000
377.33	-0.000
377.55	-0.000
377.77	-0.000
377.98	-0.000
378.20	-0.000
378.42	-0.000
378.63	-0.000
378.85	-0.000
379.07	-0.000
379.28	-0.000
379.50	-0.000
379.71	-0.000
379.93	-0.000
380.15	-0.000
380.36	-0.000
380.58	-0.000
380.80	-0.000
381.01	-0.000
381.23	-0.000
381.44	-0.000
381.66	-0.000
381.88	-0.000
382.09	-0.000
382.31	-0.000
382.53	-0.000
382.74	-0.000
382.96	-0.000
383.17	-0.000
383.39	-0.000
383.61	-0.000
383.82	-0.000
384.04	-0.000
384.25	-0.000
384.47	-0.000
384.69	-0.000
384.90	-0.000
385.12	-0.000
385.33	-0.000
385.55	-0.000
385.77	-0.000
385.98	-0.000
386.20	-0.000
386.41	-0.000
386.63	-0.000
386.85	-0.000
387.06	-0.000
387.28	-0.000
387.49	-0.000
387.71	-0.000
387.93	-0.000
388.14	-0.000
388.36	-0.000
388.57	-0.000
388.79	-0.000
389.01	1.381
389.22	1.635
389.44	1.630
389.65	1.563
389.87	-0.000
390.08	1.676
390.30	1.197
390.52	1.052
390.73	1.057
390.95	1.000
391.16	1.018
391.38	1.005
391.59	1.547
391.81	1.537
392.03	1.174
392.24	1.588
392.46	1.341
392.67	1.371
392.89	1.887
393.10	1.675
393.32	1.508
393.53	-0.000
393.75	-0.000
393.97	1.650
394.18	1.327
394.40	1.606
394.61	1.803
394.83	-0.000
395.04	-0.000
395.26	-0.000
395.47	-0.000
395.69	-0.000
395.91	-0.000
396.12	-0.000
396.34	3.032
396.55	-0.000
396.77	1.563
396.98	1.679
397.20	1.295
397.41	1.265
397.63	1.280
397.84	1.480
398.06	1.335
398.27	1.183
398.49	1.087
398.71	1.217
398.92	1.099
399.14	1.109
399.35	0.973
399.57	1.019
399.78	0.971
400.00	0.991
400.21	0.915
400.43	0.864
400.64	0.899
400.86	0.894
401.07	0.950
401.29	0.960
401.50	1.035
401.72	1.245
401.93	1.230
402.15	1.279
402.36	1.269
402.58	1.159
402.79	1.305
403.01	1.375
403.22	1.201
403.44	1.176
403.65	1.199
403.87	1.258
404.08	1.389
404.30	1.704
404.51	1.317
404.73	1.521
404.94	1.844
405.16	1.588
405.37	1.810
405.59	1.603
405.80	1.681
406.02	1.633
406.23	1.525
406.45	1.481
406.66	1.724
406.88	1.760
407.09	2.799
407.31	2.451
407.52	2.822
407.74	-0.000
407.95	-0.000
408.17	-0.000
408.38	-0.000
408.60	-0.000
408.81	-0.000
409.03	-0.000
409.24	-0.000
409.45	-0.000
409.67	-0.000
409.88	-0.000
410.10	-0.000
410.31	-0.000
410.53	-0.000
410.74	-0.000
410.96	-0.000
411.17	-0.000
411.39	-0.000
411.60	-0.000
411.82	-0.000
412.03	-0.000
412.24	-0.000
412.46	-0.000
412.67	-0.000
412.89	-0.000
413.10	-0.000
413.32	-0.000
413.53	-0.000
413.75	1.959
413.96	2.160
414.17	1.679
414.39	1.474
414.60	1.441
414.82	1.398
415.03	1.334
415.25	1.385
415.46	1.352
415.68	1.285
415.89	1.323
416.10	1.282
416.32	1.258
416.53	1.169
416.75	1.152
416.96	1.100
417.18	1.151
417.39	1.112
417.60	1.087
417.82	1.145
418.03	1.196
418.25	1.274
418.46	1.349
418.67	1.370
418.89	1.518
419.10	1.458
419.32	1.616
419.53	1.745
419.75	1.875
419.96	1.629
420.17	1.765
420.39	1.773
420.60	1.941
420.82	2.165
421.03	-0.000
421.24	-0.000
421.46	-0.000
421.67	-0.000
421.89	-0.000
422.10	-0.000
422.31	-0.000
422.53	-0.000
422.74	2.328
422.96	1.791
423.17	1.638
423.38	1.607
423.60	1.611
423.81	1.613
424.03	1.541
424.24	1.509
424.45	1.736
424.67	1.578
424.88	1.572
425.09	1.496
425.31	1.472
425.52	1.348
425.74	1.464
425.95	1.390
426.16	1.419
426.38	1.476
426.59	1.603
426.80	1.542
427.02	1.660
427.23	1.687
427.45	1.959
427.66	2.048
427.87	-0.000
428.09	2.392
428.30	2.186
428.51	2.391
428.73	2.008
428.94	1.812
429.15	2.007
429.37	1.980
429.58	2.646
429.79	2.045
430.01	3.343
430.22	1.881
430.44	1.953
430.65	1.698
430.86	1.717
431.08	1.651
431.29	2.000
431.50	1.844
431.72	2.033
431.93	1.673
432.14	1.876
432.36	1.701
432.57	1.716
432.78	1.690
433.00	1.735
433.21	1.717
433.42	1.598
433.64	1.552
433.85	1.515
434.06	1.498
434.28	1.579
434.49	1.636
434.70	1.629
434.92	1.531
435.13	1.636
435.34	1.539
435.56	1.536
435.77	1.485
435.98	1.547
436.20	1.509
436.41	1.554
436.62	1.439
436.83	1.512
437.05	1.491
437.26	1.485
437.47	1.495
437.69	1.474
437.90	1.541
438.11	1.573
438.33	1.554
438.54	1.513
438.75	1.505
438.97	1.455
439.18	1.446
439.39	1.526
439.60	1.478
439.82	1.514
440.03	1.507
440.24	1.539
440.46	1.440
440.67	1.431
440.88	1.414
441.10	1.443
441.31	1.393
441.52	1.427
441.73	1.458
441.95	1.455
442.16	1.534
442.37	1.587
442.58	1.523
442.80	1.551
443.01	1.567
443.22	1.655
443.44	1.618
443.65	1.677
443.86	1.638
444.07	1.622
444.29	1.613
444.50	1.699
444.71	1.650
444.92	1.784
445.14	1.801
445.35	1.807
445.56	1.828
445.78	1.815
445.99	1.820
446.20	1.850
446.41	1.894
446.63	1.853
446.84	1.783
447.05	1.822
447.26	1.844
447.48	1.790
447.69	1.645
447.90	1.600
448.11	1.616
448.33	1.648
448.54	1.656
448.75	1.694
448.96	1.629
449.18	1.617
449.39	1.594
449.60	1.604
449.81	1.641
450.03	1.669
450.24	1.630
450.45	1.667
450.66	1.602
450.87	1.585
451.09	1.591
451.30	1.617
451.51	1.608
451.72	1.578
451.94	1.538
452.15	1.575
452.36	1.596
452.57	1.592
452.78	1.555
453.00	1.641
453.21	1.612
453.42	1.597
453.63	1.593
453.85	1.566
454.06	1.527
454.27	1.527
454.48	1.527
454.69	1.586
454.91	1.564
455.12	1.576
455.33	1.537
455.54	1.493
455.75	1.436
455.97	1.431
456.18	1.448
456.39	1.489
456.60	1.483
456.81	1.488
457.03	1.459
457.24	1.454
457.45	1.426
457.66	1.435
457.87	1.410
458.09	1.416
458.30	1.415
458.51	1.421
458.72	1.428
458.93	1.409
459.15	1.396
459.36	1.384
459.57	1.380
459.78	1.415
459.99	1.436
460.20	1.469
460.42	1.505
460.63	1.503
460.84	1.480
461.05	1.468
461.26	1.463
461.47	1.439
461.69	1.415
461.90	1.417
462.11	1.398
462.32	1.395
462.53	1.368
462.74	1.369
462.96	1.358
463.17	1.357
463.38	1.370
463.59	1.349
463.80	1.352
464.01	1.356
464.23	1.357
464.44	1.351
464.65	1.327
464.86	1.312
465.07	1.326
465.28	1.342
465.49	1.356
465.71	1.352
465.92	1.380
466.13	1.412
466.34	1.384
466.55	1.402
466.76	1.411
466.97	1.433
467.19	1.412
467.40	1.416
467.61	1.404
467.82	1.395
468.03	1.438
468.24	1.436
468.45	1.416
468.66	1.402
468.88	1.408
469.09	1.425
469.30	1.412
469.51	1.399
469.72	1.390
469.93	1.366
470.14	1.375
470.35	1.372
470.57	1.372
470.78	1.394
470.99	1.396
471.20	1.397
471.41	1.400
471.62	1.427
471.83	1.411
472.04	1.405
472.25	1.403
472.47	1.382
472.68	1.371
472.89	1.375
473.10	1.375
473.31	1.377
473.52	1.389
473.73	1.406
473.94	1.406
474.15	1.405
474.36	1.420
474.57	1.410
474.79	1.413
475.00	1.418
475.21	1.418
475.42	1.407
475.63	1.420
475.84	1.424
476.05	1.434
476.26	1.447
476.47	1.450
476.68	1.453
476.89	1.440
477.10	1.438
477.32	1.432
477.53	1.420
477.74	1.408
477.95	1.394
478.16	1.397
478.37	1.397
478.58	1.383
478.79	1.380
479.00	1.382
479.21	1.368
479.42	1.337
479.63	1.321
479.84	1.325
480.05	1.311
480.26	1.313
480.47	1.289
480.69	1.289
480.90	1.297
481.11	1.297
481.32	1.306
481.53	1.313
481.74	1.325
481.95	1.339
482.16	1.346
482.37	1.344
482.58	1.330
482.79	1.328
483.00	1.335
483.21	1.338
483.42	1.332
483.63	1.335
483.84	1.352
484.05	1.361
484.26	1.359
484.47	1.366
484.68	1.357
484.89	1.366
485.10	1.363
485.31	1.365
485.52	1.369
485.73	1.355
485.94	1.357
486.15	1.345
486.37	1.342
486.58	1.347
486.79	1.348
487.00	1.348
487.21	1.349
487.42	1.349
487.63	1.347
487.84	1.346
488.05	1.354
488.26	1.352
488.47	1.349
488.68	1.351
488.89	1.345
489.10	1.340
489.31	1.340
489.52	1.345
489.73	1.348
489.94	1.340
490.15	1.347
490.36	1.342
490.57	1.347
490.78	1.352
490.99	1.349
491.20	1.347
491.41	1.348
491.62	1.347
491.83	1.349
492.04	1.344
492.25	1.351
492.45	1.347
492.66	1.344
492.87	1.340
493.08	1.344
493.29	1.347
493.50	1.350
493.71	1.355
493.92	1.350
494.13	1.331
494.34	1.336
494.55	1.337
494.76	1.338
494.97	1.340
495.18	1.337
495.39	1.332
495.60	1.329
495.81	1.330
496.02	1.330
496.23	1.330
496.44	1.332
496.65	1.329
496.86	1.331
497.07	1.330
497.28	1.340
497.49	1.331
497.70	1.332
497.91	1.336
498.12	1.334
498.32	1.333
498.53	1.347
498.74	1.354
498.95	1.356
499.16	1.365
499.37	1.358
499.58	1.353
499.79	1.359
500.00	1.367
500.21	1.371
500.42	1.371
500.63	1.374
500.84	1.366
501.05	1.372
501.26	1.375
501.46	1.379
501.67	1.374
501.88	1.381
502.09	1.378
502.30	1.374
502.51	1.376
502.72	1.388
502.93	1.392
503.14	1.386
503.35	1.385
503.56	1.381
503.77	1.384
503.97	1.386
504.18	1.383
504.39	1.384
504.60	1.387
504.81	1.389
505.02	1.384
505.23	1.398
505.44	1.392
505.65	1.389
505.86	1.392
506.07	1.401
506.27	1.410
506.48	1.414
506.69	1.415
506.90	1.414
507.11	1.416
507.32	1.419
507.53	1.422
507.74	1.422
507.95	1.425
508.15	1.434
508.36	1.428
508.57	1.434
508.78	1.432
508.99	1.430
509.20	1.426
509.41	1.429
509.62	1.426
509.82	1.432
510.03	1.435
510.24	1.433
510.45	1.426
510.66	1.418
510.87	1.421
511.08	1.424
511.29	1.431
511.49	1.425
511.70	1.421
511.91	1.424
512.12	1.424
512.33	1.421
512.54	1.415
512.75	1.419
512.95	1.419
513.16	1.420
513.37	1.423
513.58	1.422
513.79	1.424
514.00	1.428
514.20	1.428
514.41	1.423
514.62	1.429
514.83	1.429
515.04	1.428
515.25	1.427
515.46	1.425
515.66	1.422
515.87	1.422
516.08	1.422
516.29	1.417
516.50	1.420
516.71	1.423
516.91	1.423
517.12	1.421
517.33	1.420
517.54	1.420
517.75	1.419
517.95	1.427
518.16	1.430
518.37	1.426
518.58	1.427
518.79	1.434
519.00	1.429
519.20	1.430
519.41	1.434
519.62	1.433
519.83	1.438
520.04	1.441
520.24	1.440
520.45	1.438
520.66	1.441
520.87	1.436
521.08	1.443
521.28	1.446
521.49	1.450
521.70	1.452
521.91	1.455
522.12	1.458
522.32	1.463
522.53	1.461
522.74	1.465
522.95	1.465
523.16	1.459
523.36	1.463
523.57	1.464
523.78	1.460
523.99	1.465
524.20	1.465
524.40	1.466
524.61	1.467
524.82	1.470
525.03	1.470
525.23	1.477
525.44	1.469
525.65	1.474
525.86	1.474
526.06	1.474
526.27	1.469
526.48	1.464
526.69	1.460
526.90	1.454
527.10	1.454
527.31	1.454
527.52	1.461
527.73	1.452
527.93	1.456
528.14	1.456
528.35	1.452
528.56	1.448
528.76	1.447
528.97	1.448
529.18	1.447
529.39	1.446
529.59	1.446
529.80	1.441
530.01	1.443
530.22	1.448
530.42	1.451
530.63	1.453
530.84	1.456
531.05	1.456
531.25	1.461
531.46	1.458
531.67	1.460
531.88	1.459
532.08	1.467
532.29	1.465
532.50	1.462
532.70	1.464
532.91	1.467
533.12	1.466
533.33	1.470
533.53	1.466
533.74	1.465
533.95	1.462
534.15	1.466
534.36	1.460
534.57	1.457
534.78	1.458
534.98	1.453
535.19	1.450
535.40	1.445
535.60	1.444
535.81	1.440
536.02	1.438
536.23	1.439
536.43	1.437
536.64	1.436
536.85	1.443
537.05	1.438
537.26	1.437
537.47	1.437
537.67	1.432
537.88	1.439
538.09	1.438
538.30	1.445
538.50	1.441
538.71	1.447
538.92	1.444
539.12	1.443
539.33	1.443
539.54	1.445
539.74	1.447
539.95	1.450
540.16	1.452
540.36	1.454
540.57	1.446
540.78	1.446
540.98	1.447
541.19	1.447
541.40	1.453
541.60	1.457
541.81	1.455
542.02	1.451
542.22	1.449
542.43	1.453
542.64	1.445
542.84	1.452
543.05	1.449
543.26	1.452
543.46	1.450
543.67	1.453
543.88	1.450
544.08	1.449
544.29	1.443
544.50	1.445
544.70	1.444
544.91	1.450
545.12	1.450
545.32	1.450
545.53	1.448
545.74	1.445
545.94	1.442
546.15	1.438
546.35	1.441
546.56	1.435
546.77	1.435
546.97	1.437
547.18	1.434
547.39	1.434
547.59	1.433
547.80	1.433
548.01	1.431
548.21	1.434
548.42	1.432
548.62	1.438
548.83	1.434
549.04	1.436
549.24	1.435
549.45	1.439
549.65	1.436
549.86	1.435
550.07	1.434
550.27	1.433
550.48	1.436
550.69	1.433
550.89	1.440
551.10	1.434
551.30	1.431
551.51	1.432
551.72	1.433
551.92	1.431
552.13	1.429
552.33	1.433
552.54	1.431
552.75	1.432
552.95	1.426
553.16	1.425
553.36	1.424
553.57	1.417
553.78	1.415
553.98	1.420
554.19	1.419
554.39	1.423
554.60	1.423
554.80	1.422
555.01	1.420
555.22	1.418
555.42	1.424
555.63	1.425
555.83	1.423
556.04	1.421
556.25	1.422
556.45	1.422
556.66	1.417
556.86	1.418
557.07	1.418
557.27	1.421
557.48	1.421
557.68	1.420
557.89	1.424
558.10	1.424
558.30	1.418
558.51	1.417
558.71	1.414
558.92	1.414
559.12	1.421
559.33	1.424
559.54	1.422
559.74	1.418
559.95	1.420
560.15	1.421
560.36	1.421
560.56	1.419
560.77	1.425
560.97	1.426
561.18	1.423
561.38	1.422
561.59	1.419
561.79	1.423
562.00	1.422
562.21	1.423
562.41	1.421
562.62	1.422
562.82	1.425
563.03	1.424
563.23	1.421
563.44	1.413
563.64	1.415
563.85	1.418
564.05	1.419
564.26	1.417
564.46	1.417
564.67	1.420
564.87	1.420
565.08	1.415
565.28	1.415
565.49	1.419
565.69	1.422
565.90	1.422
566.10	1.423
566.31	1.425
566.51	1.423
566.72	1.421
566.92	1.422
567.13	1.417
567.33	1.416
567.54	1.419
567.74	1.420
567.95	1.418
568.15	1.417
568.36	1.418
568.56	1.417
568.77	1.416
568.97	1.411
569.18	1.412
569.38	1.411
569.59	1.413
569.79	1.409
570.00	1.406
570.20	1.406
570.41	1.405
570.61	1.402
570.82	1.404
571.02	1.405
571.23	1.404
571.43	1.405
571.64	1.407
571.84	1.407
572.05	1.406
572.25	1.406
572.45	1.402
572.66	1.400
572.86	1.403
573.07	1.404
573.27	1.408
573.48	1.405
573.68	1.407
573.89	1.405
574.09	1.407
574.30	1.406
574.50	1.405
574.70	1.404
574.91	1.405
575.11	1.407
575.32	1.407
575.52	1.408
575.73	1.408
575.93	1.404
576.14	1.402
576.34	1.405
576.54	1.406
576.75	1.409
576.95	1.411
577.16	1.410
577.36	1.406
577.57	1.404
577.77	1.402
577.97	1.399
578.18	1.401
578.38	1.400
578.59	1.400
578.79	1.403
579.00	1.402
579.20	1.402
579.40	1.399
579.61	1.400
579.81	1.399
580.02	1.399
580.22	1.401
580.42	1.403
580.63	1.402
580.83	1.400
581.04	1.397
581.24	1.393
581.45	1.391
581.65	1.392
581.85	1.392
582.06	1.395
582.26	1.394
582.47	1.392
582.67	1.392
582.87	1.389
583.08	1.388
583.28	1.389
583.48	1.389
583.69	1.387
583.89	1.385
584.10	1.384
584.30	1.382
584.50	1.384
584.71	1.384
584.91	1.381
585.12	1.381
585.32	1.381
585.52	1.385
585.73	1.385
585.93	1.385
586.13	1.386
586.34	1.384
586.54	1.389
586.75	1.391
586.95	1.392
587.15	1.395
587.36	1.397
587.56	1.394
587.76	1.393
587.97	1.397
588.17	1.395
588.37	1.399
588.58	1.398
588.78	1.398
588.98	1.398
589.19	1.399
589.39	1.401
589.60	1.402
589.80	1.400
590.00	1.400
590.21	1.401
590.41	1.398
590.61	1.397
590.82	1.393
591.02	1.391
591.22	1.392
591.43	1.393
591.63	1.394
591.83	1.395
592.04	1.395
592.24	1.394
592.44	1.395
592.65	1.395
592.85	1.397
593.05	1.397
593.26	1.397
593.46	1.392
593.66	1.394
593.86	1.394
594.07	1.394
594.27	1.392
594.47	1.393
594.68	1.392
594.88	1.393
595.08	1.392
595.29	1.392
595.49	1.390
595.69	1.390
595.90	1.387
596.10	1.389
596.30	1.391
596.50	1.388
596.71	1.385
596.91	1.384
597.11	1.381
597.32	1.381
597.52	1.380
597.72	1.384
597.93	1.383
598.13	1.382
598.33	1.382
598.53	1.382
598.74	1.381
598.94	1.384
599.14	1.385
599.35	1.386
599.55	1.387
599.75	1.389
599.95	1.390
600.16	1.389
600.36	1.388
600.56	1.385
600.76	1.388
600.97	1.392
601.17	1.391
601.37	1.391
601.58	1.392
601.78	1.393
601.98	1.392
602.18	1.391
602.39	1.390
602.59	1.391
602.79	1.392
602.99	1.390
603.20	1.389
603.40	1.388
603.60	1.389
603.80	1.389
604.01	1.387
604.21	1.388
604.41	1.390
604.61	1.388
604.82	1.392
605.02	1.389
605.22	1.387
605.42	1.388
605.62	1.388
605.83	1.385
606.03	1.389
606.23	1.390
606.43	1.391
606.64	1.391
606.84	1.391
607.04	1.390
607.24	1.393
607.45	1.391
607.65	1.392
607.85	1.393
608.05	1.395
608.25	1.395
608.46	1.393
608.66	1.392
608.86	1.395
609.06	1.395
609.26	1.397
609.47	1.399
609.67	1.400
609.87	1.402
610.07	1.406
610.28	1.402
610.48	1.401
610.68	1.399
610.88	1.401
611.08	1.401
611.29	1.401
611.49	1.402
611.69	1.402
611.89	1.400
612.09	1.398
612.29	1.397
612.50	1.399
612.70	1.400
612.90	1.398
613.10	1.399
613.30	1.398
613.51	1.397
613.71	1.399
613.91	1.398
614.11	1.398
614.31	1.400
614.51	1.399
614.72	1.401
614.92	1.403
615.12	1.403
615.32	1.404
615.52	1.405
615.72	1.405
615.93	1.405
616.13	1.405
616.33	1.407
616.53	1.408
616.73	1.406
616.93	1.406
617.14	1.405
617.34	1.401
617.54	1.400
617.74	1.400
617.94	1.399
618.14	1.397
618.34	1.396
618.55	1.392
618.75	1.396
618.95	1.392
619.15	1.391
619.35	1.390
619.55	1.390
619.75	1.389
619.96	1.390
620.16	1.392
620.36	1.391
620.56	1.392
620.76	1.389
620.96	1.391
621.16	1.390
621.36	1.390
621.57	1.393
621.77	1.394
621.97	1.394
622.17	1.392
622.37	1.394
622.57	1.397
622.77	1.399
622.97	1.399
623.18	1.401
623.38	1.402
623.58	1.402
623.78	1.403
623.98	1.401
624.18	1.398
624.38	1.397
624.58	1.398
624.78	1.397
624.98	1.396
625.19	1.395
625.39	1.396
625.59	1.395
625.79	1.394
625.99	1.394
626.19	1.394
626.39	1.395
626.59	1.395
626.79	1.395
626.99	1.395
627.19	1.393
627.40	1.394
627.60	1.393
627.80	1.393
628.00	1.392
628.20	1.394
628.40	1.395
628.60	1.393
628.80	1.394
629.00	1.393
629.20	1.396
629.40	1.398
629.60	1.398
629.80	1.400
630.00	1.402
630.20	1.401
630.41	1.400
630.61	1.402
630.81	1.404
631.01	1.403
631.21	1.403
631.41	1.404
631.61	1.403
631.81	1.404
632.01	1.403
632.21	1.407
632.41	1.408
632.61	1.409
632.81	1.410
633.01	1.411
633.21	1.410
633.41	1.409
633.61	1.406
633.81	1.407
634.01	1.410
634.21	1.409
634.41	1.409
634.61	1.410
634.81	1.410
635.01	1.406
635.22	1.407
635.42	1.407
635.62	1.407
635.82	1.410
636.02	1.407
636.22	1.411
636.42	1.408
636.62	1.409
636.82	1.409
637.02	1.410
637.22	1.411
637.42	1.413
637.62	1.414
637.82	1.415
638.02	1.414
638.22	1.411
638.42	1.411
638.62	1.412
638.82	1.411
639.02	1.412
639.22	1.414
639.42	1.414
639.62	1.413
639.82	1.411
640.02	1.409
640.22	1.410
640.42	1.407
640.62	1.406
640.82	1.403
641.02	1.403
641.22	1.402
641.42	1.400
641.61	1.400
641.81	1.400
642.01	1.400
642.21	1.400
642.41	1.403
642.61	1.402
642.81	1.404
643.01	1.403
643.21	1.401
643.41	1.400
643.61	1.400
643.81	1.399
644.01	1.399
644.21	1.401
644.41	1.402
644.61	1.404
644.81	1.406
645.01	1.406
645.21	1.409
645.41	1.410
645.61	1.410
645.81	1.409
646.01	1.408
646.21	1.406
646.40	1.406
646.60	1.404
646.80	1.404
647.00	1.403
647.20	1.403
647.40	1.406
647.60	1.407
647.80	1.406
648.00	1.408
648.20	1.408
648.40	1.407
648.60	1.407
648.80	1.406
649.00	1.405
649.20	1.403
649.39	1.403
649.59	1.401
649.79	1.402
649.99	1.403
650.19	1.404
650.39	1.406
650.59	1.407
650.79	1.406
650.99	1.404
651.19	1.402
651.39	1.403
651.58	1.403
651.78	1.399
651.98	1.398
652.18	1.399
652.38	1.400
652.58	1.399
652.78	1.399
652.98	1.399
653.18	1.401
653.38	1.405
653.57	1.403
653.77	1.405
653.97	1.407
654.17	1.406
654.37	1.406
654.57	1.406
654.77	1.407
654.97	1.408
655.16	1.411
655.36	1.411
655.56	1.412
655.76	1.412
655.96	1.414
656.16	1.415
656.36	1.415
656.56	1.413
656.75	1.415
656.95	1.415
657.15	1.418
657.35	1.418
657.55	1.417
657.75	1.417
657.95	1.418
658.14	1.416
658.34	1.413
658.54	1.412
658.74	1.413
658.94	1.413
659.14	1.414
659.34	1.414
659.53	1.417
659.73	1.417
659.93	1.417
660.13	1.418
660.33	1.419
660.53	1.420
660.72	1.421
660.92	1.419
661.12	1.418
661.32	1.417
661.52	1.416
661.72	1.416
661.91	1.417
662.11	1.414
662.31	1.414
662.51	1.417
662.71	1.418
662.90	1.418
663.10	1.417
663.30	1.415
663.50	1.414
663.70	1.412
663.90	1.410
664.09	1.409
664.29	1.408
664.49	1.408
664.69	1.407
664.89	1.405
665.08	1.405
665.28	1.407
665.48	1.405
665.68	1.405
665.88	1.404
666.07	1.405
666.27	1.406
666.47	1.408
666.67	1.407
666.87	1.406
667.06	1.407
667.26	1.407
667.46	1.409
667.66	1.410
667.85	1.411
668.05	1.411
668.25	1.411
668.45	1.410
668.65	1.412
668.84	1.412
669.04	1.414
669.24	1.415
669.44	1.414
669.63	1.416
669.83	1.417
670.03	1.419
670.23	1.419
670.42	1.418
670.62	1.418
670.82	1.417
671.02	1.418
671.22	1.417
671.41	1.417
671.61	1.417
671.81	1.417
672.01	1.418
672.20	1.420
672.40	1.420
672.60	1.422
672.80	1.420
672.99	1.419
673.19	1.419
673.39	1.418
673.58	1.416
673.78	1.416
673.98	1.415
674.18	1.412
674.37	1.412
674.57	1.414
674.77	1.413
674.97	1.417
675.16	1.419
675.36	1.418
675.56	1.419
675.75	1.418
675.95	1.418
676.15	1.417
676.35	1.418
676.54	1.420
676.74	1.420
676.94	1.423
677.13	1.422
677.33	1.421
677.53	1.422
677.73	1.425
677.92	1.425
678.12	1.426
678.32	1.426
678.51	1.425
678.71	1.424
678.91	1.426
679.11	1.423
679.30	1.423
679.50	1.424
679.70	1.426
679.89	1.426
680.09	1.425
680.29	1.427
680.48	1.427
680.68	1.425
680.88	1.426
681.07	1.424
681.27	1.427
681.47	1.426
681.66	1.427
681.86	1.425
682.06	1.425
682.25	1.424
682.45	1.426
682.65	1.427
682.84	1.428
683.04	1.425
683.24	1.428
683.43	1.428
683.63	1.429
683.83	1.426
684.02	1.427
684.22	1.428
684.42	1.427
684.61	1.426
684.81	1.428
685.01	1.429
685.20	1.429
685.40	1.429
685.60	1.431
685.79	1.429
685.99	1.430
686.19	1.431
686.38	1.430
686.58	1.429
686.77	1.430
686.97	1.431
687.17	1.432
687.36	1.429
687.56	1.430
687.76	1.430
687.95	1.429
688.15	1.428
688.34	1.427
688.54	1.426
688.74	1.426
688.93	1.424
689.13	1.423
689.33	1.426
689.52	1.427
689.72	1.424
689.91	1.426
690.11	1.425
690.31	1.423
690.50	1.426
690.70	1.425
690.89	1.425
691.09	1.424
691.29	1.426
691.48	1.427
691.68	1.424
691.87	1.424
692.07	1.426
692.27	1.427
692.46	1.428
692.66	1.430
692.85	1.433
693.05	1.433
693.25	1.431
693.44	1.426
693.64	1.427
693.83	1.429
694.03	1.430
694.22	1.430
694.42	1.432
694.62	1.431
694.81	1.433
695.01	1.432
695.20	1.430
695.40	1.432
695.59	1.430
695.79	1.430
695.99	1.431
696.18	1.431
696.38	1.431
696.57	1.431
696.77	1.429
696.96	1.428
697.16	1.427
697.36	1.429
697.55	1.432
697.75	1.431
697.94	1.432
698.14	1.431
698.33	1.433
698.53	1.432
698.72	1.431
698.92	1.429
699.11	1.430
699.31	1.431
699.51	1.429
699.70	1.431
699.90	1.433
700.09	1.432
700.29	1.430
700.48	1.429
700.68	1.428
700.87	1.431
701.07	1.432
701.26	1.433
701.46	1.433
701.65	1.434
701.85	1.433
702.04	1.432
702.24	1.431
702.43	1.430
702.63	1.432
702.82	1.433
703.02	1.434
703.21	1.435
703.41	1.435
703.60	1.436
703.80	1.435
703.99	1.436
704.19	1.436
704.38	1.439
704.58	1.439
704.77	1.440
704.97	1.437
705.16	1.438
705.36	1.439
705.55	1.440
705.75	1.438
705.94	1.437
706.14	1.440
706.33	1.440
706.53	1.440
706.72	1.438
706.92	1.436
707.11	1.436
707.31	1.435
707.50	1.434
707.70	1.432
707.89	1.432
708.09	1.431
708.28	1.433
708.48	1.430
708.67	1.431
708.86	1.432
709.06	1.433
709.25	1.431
709.45	1.432
709.64	1.428
709.84	1.429
710.03	1.429
710.23	1.427
710.42	1.426
710.62	1.428
710.81	1.428
711.00	1.428
711.20	1.430
711.39	1.430
711.59	1.430
711.78	1.434
711.98	1.433
712.17	1.433
712.37	1.433
712.56	1.436
712.75	1.435
712.95	1.434
713.14	1.432
713.34	1.433
713.53	1.431
713.73	1.432
713.92	1.433
714.11	1.435
714.31	1.437
714.50	1.439
714.70	1.437
714.89	1.440
715.08	1.440
715.28	1.438
715.47	1.438
715.67	1.441
715.86	1.440
716.06	1.441
716.25	1.443
716.44	1.442
716.64	1.440
716.83	1.440
717.03	1.441
717.22	1.444
717.41	1.442
717.61	1.443
717.80	1.445
717.99	1.443
718.19	1.440
718.38	1.439
718.58	1.437
718.77	1.438
718.96	1.436
719.16	1.437
719.35	1.436
719.55	1.438
719.74	1.435
719.93	1.436
720.13	1.435
720.32	1.436
720.51	1.436
720.71	1.437
720.90	1.437
721.10	1.436
721.29	1.435
721.48	1.437
721.68	1.437
721.87	1.438
722.06	1.439
722.26	1.440
722.45	1.440
722.64	1.439
722.84	1.439
723.03	1.441
723.22	1.441
723.42	1.442
723.61	1.440
723.80	1.439
724.00	1.440
724.19	1.440
724.38	1.440
724.58	1.440
724.77	1.441
724.96	1.441
725.16	1.441
725.35	1.441
725.54	1.443
725.74	1.440
725.93	1.439
726.12	1.439
726.32	1.441
726.51	1.441
726.70	1.443
726.90	1.443
727.09	1.443
727.28	1.445
727.48	1.443
727.67	1.445
727.86	1.447
728.06	1.445
728.25	1.446
728.44	1.446
728.64	1.445
728.83	1.443
729.02	1.443
729.21	1.443
729.41	1.444
729.60	1.442
729.79	1.446
729.99	1.446
730.18	1.444
730.37	1.442
730.56	1.442
730.76	1.444
730.95	1.443
731.14	1.442
731.34	1.441
731.53	1.441
731.72	1.440
731.91	1.440
732.11	1.443
732.30	1.444
732.49	1.443
732.69	1.444
732.88	1.447
733.07	1.445
733.26	1.447
733.46	1.446
733.65	1.446
733.84	1.444
734.03	1.444
734.23	1.446
734.42	1.447
734.61	1.449
734.80	1.448
735.00	1.447
735.19	1.447
735.38	1.446
735.57	1.447
735.77	1.448
735.96	1.449
736.15	1.447
736.34	1.446
736.54	1.444
736.73	1.444
736.92	1.444
737.11	1.448
737.31	1.447
737.50	1.446
737.69	1.447
737.88	1.449
738.07	1.449
738.27	1.448
738.46	1.450
738.65	1.449
738.84	1.449
739.04	1.450
739.23	1.451
739.42	1.450
739.61	1.450
739.80	1.450
740.00	1.450
740.19	1.450
740.38	1.449
740.57	1.451
740.76	1.449
740.96	1.448
741.15	1.447
741.34	1.447
741.53	1.448
741.72	1.448
741.92	1.448
742.11	1.452
742.30	1.452
742.49	1.451
742.68	1.453
742.88	1.455
743.07	1.457
743.26	1.459
743.45	1.460
743.64	1.460
743.84	1.459
744.03	1.458
744.22	1.459
744.41	1.458
744.60	1.458
744.79	1.457
744.99	1.458
745.18	1.456
745.37	1.457
745.56	1.459
745.75	1.458
745.94	1.459
746.14	1.454
746.33	1.454
746.52	1.451
746.71	1.450
746.90	1.446
747.09	1.445
747.28	1.444
747.48	1.444
747.67	1.443
747.86	1.442
748.05	1.440
748.24	1.439
748.43	1.440
748.62	1.439
748.82	1.442
749.01	1.443
749.20	1.443
749.39	1.442
749.58	1.438
749.77	1.438
749.96	1.437
750.16	1.440
750.35	1.439
750.54	1.440
750.73	1.440
750.92	1.441
751.11	1.442
751.30	1.442
751.49	1.442
751.68	1.443
751.88	1.444
752.07	1.447
752.26	1.449
752.45	1.451
752.64	1.450
752.83	1.448
753.02	1.449
753.21	1.451
753.40	1.450
753.60	1.452
753.79	1.453
753.98	1.453
754.17	1.454
754.36	1.455
754.55	1.454
754.74	1.453
754.93	1.453
755.12	1.454
755.31	1.453
755.50	1.452
755.70	1.451
755.89	1.453
756.08	1.451
756.27	1.450
756.46	1.450
756.65	1.452
756.84	1.452
757.03	1.451
757.22	1.449
757.41	1.451
757.60	1.451
757.79	1.450
757.98	1.450
758.17	1.448
758.36	1.447
758.56	1.450
758.75	1.451
758.94	1.449
759.13	1.450
759.32	1.449
759.51	1.451
759.70	1.449
759.89	1.451
760.08	1.450
760.27	1.450
760.46	1.450
760.65	1.450
760.84	1.452
761.03	1.451
761.22	1.452
761.41	1.451
761.60	1.451
761.79	1.451
761.98	1.449
762.17	1.449
762.36	1.450
762.55	1.450
762.74	1.451
762.93	1.453
763.12	1.452
763.31	1.452
763.50	1.451
763.69	1.451
763.88	1.450
764.07	1.451
764.26	1.452
764.45	1.452
764.64	1.451
764.83	1.448
765.02	1.452
765.21	1.453
765.40	1.452
765.59	1.454
765.78	1.454
765.97	1.455
766.16	1.454
766.35	1.455
766.54	1.453
766.73	1.453
766.92	1.453
767.11	1.455
767.30	1.454
767.49	1.457
767.68	1.458
767.87	1.458
768.06	1.459
768.25	1.458
768.44	1.458
768.63	1.460
768.82	1.463
769.01	1.460
769.20	1.459
769.39	1.460
769.58	1.458
769.77	1.459
769.96	1.461
770.15	1.463
770.34	1.462
770.53	1.466
770.72	1.465
770.91	1.465
771.10	1.464
771.29	1.467
771.47	1.466
771.66	1.466
771.85	1.464
772.04	1.465
772.23	1.464
772.42	1.464
772.61	1.464
772.80	1.464
772.99	1.464
773.18	1.465
773.37	1.465
773.56	1.466
773.75	1.464
773.94	1.464
774.13	1.465
774.31	1.464
774.50	1.460
774.69	1.461
774.88	1.462
775.07	1.460
775.26	1.458
775.45	1.456
775.64	1.456
775.83	1.459
776.02	1.458
776.21	1.459
776.40	1.458
776.58	1.458
776.77	1.459
776.96	1.460
777.15	1.461
777.34	1.460
777.53	1.461
777.72	1.462
777.91	1.461
778.10	1.462
778.28	1.461
778.47	1.463
778.66	1.462
778.85	1.461
779.04	1.460
779.23	1.461
779.42	1.463
779.61	1.461
779.79	1.460
779.98	1.461
780.17	1.462
780.36	1.461
780.55	1.462
780.74	1.461
780.93	1.460
781.12	1.462
781.30	1.461
781.49	1.459
781.68	1.458
781.87	1.458
782.06	1.456
782.25	1.457
782.44	1.456
782.62	1.458
782.81	1.460
783.00	1.461
783.19	1.462
783.38	1.462
783.57	1.464
783.75	1.462
783.94	1.460
784.13	1.459
784.32	1.462
784.51	1.461
784.70	1.460
784.88	1.458
785.07	1.456
785.26	1.455
785.45	1.457
785.64	1.460
785.83	1.459
786.01	1.462
786.20	1.462
786.39	1.462
786.58	1.462
786.77	1.461
786.95	1.462
787.14	1.461
787.33	1.461
787.52	1.461
787.71	1.460
787.90	1.460
788.08	1.461
788.27	1.462
788.46	1.461
788.65	1.460
788.84	1.462
789.02	1.461
789.21	1.461
789.40	1.462
789.59	1.460
789.77	1.460
789.96	1.459
790.15	1.456
790.34	1.457
790.53	1.457
790.71	1.455
790.90	1.454
791.09	1.455
791.28	1.455
791.46	1.456
791.65	1.458
791.84	1.460
792.03	1.460
792.22	1.459
792.40	1.460
792.59	1.460
792.78	1.458
792.97	1.462
793.15	1.463
793.34	1.462
793.53	1.462
793.72	1.464
793.90	1.465
794.09	1.468
794.28	1.469
794.47	1.469
794.65	1.470
794.84	1.471
795.03	1.471
795.22	1.472
795.40	1.470
795.59	1.470
795.78	1.471
795.97	1.469
796.15	1.467
796.34	1.470
796.53	1.470
796.71	1.471
796.90	1.471
797.09	1.469
797.28	1.471
797.46	1.469
797.65	1.467
797.84	1.469
798.02	1.468
798.21	1.466
798.40	1.467
798.59	1.467
798.77	1.466
798.96	1.467
799.15	1.464
799.33	1.464
799.52	1.464
799.71	1.462
799.90	1.465
800.08	1.466
800.27	1.465
800.46	1.467
800.64	1.467
800.83	1.465
801.02	1.468
801.20	1.467
801.39	1.468
801.58	1.468
801.76	1.465
801.95	1.465
802.14	1.465
802.32	1.464
802.51	1.465
802.70	1.465
802.88	1.465
803.07	1.465
803.26	1.466
803.44	1.467
803.63	1.468
803.82	1.466
804.00	1.467
804.19	1.467
804.38	1.466
804.56	1.467
804.75	1.468
804.94	1.465
805.12	1.465
805.31	1.466
805.50	1.468
805.68	1.467
805.87	1.466
806.06	1.467
806.24	1.467
806.43	1.467
806.62	1.470
806.80	1.470
806.99	1.471
807.17	1.469
807.36	1.467
807.55	1.466
807.73	1.466
807.92	1.466
808.11	1.466
808.29	1.464
808.48	1.464
808.66	1.463
808.85	1.465
809.04	1.467
809.22	1.467
809.41	1.467
809.59	1.467
809.78	1.468
809.97	1.467
810.15	1.468
810.34	1.468
810.53	1.467
810.71	1.467
810.90	1.468
811.08	1.469
811.27	1.471
811.45	1.470
811.64	1.469
811.83	1.471
812.01	1.472
812.20	1.470
812.38	1.470
812.57	1.471
812.76	1.470
812.94	1.470
813.13	1.470
813.31	1.470
813.50	1.470
813.68	1.472
813.87	1.474
814.06	1.473
814.24	1.472
814.43	1.472
814.61	1.472
814.80	1.471
814.98	1.472
815.17	1.472
815.36	1.472
815.54	1.471
815.73	1.467
815.91	1.465
816.10	1.466
816.28	1.466
816.47	1.465
816.65	1.466
816.84	1.467
817.03	1.469
817.21	1.468
817.40	1.467
817.58	1.467
817.77	1.465
817.95	1.466
818.14	1.466
818.32	1.466
818.51	1.465
818.69	1.466
818.88	1.465
819.06	1.466
819.25	1.466
819.43	1.468
819.62	1.471
819.80	1.473
819.99	1.474
820.18	1.474
820.36	1.475
820.55	1.475
820.73	1.473
820.92	1.472
821.10	1.472
821.29	1.471
821.47	1.470
821.66	1.471
821.84	1.472
822.03	1.472
822.21	1.472
822.40	1.473
822.58	1.472
822.77	1.470
822.95	1.470
823.14	1.470
823.32	1.470
823.50	1.470
823.69	1.471
823.87	1.471
824.06	1.471
824.24	1.470
824.43	1.469
824.61	1.468
824.80	1.468
824.98	1.466
825.17	1.468
825.35	1.470
825.54	1.469
825.72	1.468
825.91	1.471
826.09	1.470
826.28	1.471
826.46	1.473
826.64	1.474
826.83	1.476
827.01	1.475
827.20	1.475
827.38	1.477
827.57	1.475
827.75	1.476
827.94	1.475
828.12	1.476
828.31	1.477
828.49	1.481
828.67	1.481
828.86	1.481
829.04	1.481
829.23	1.479
829.41	1.479
829.60	1.478
829.78	1.476
829.96	1.477
830.15	1.476
830.33	1.476
830.52	1.477
830.70	1.476
830.88	1.475
831.07	1.477
831.25	1.477
831.44	1.477
831.62	1.477
831.81	1.477
831.99	1.477
832.17	1.475
832.36	1.473
832.54	1.472
832.73	1.472
832.91	1.472
833.09	1.472
833.28	1.472
833.46	1.472
833.65	1.474
833.83	1.472
834.01	1.472
834.20	1.472
834.38	1.470
834.56	1.470
834.75	1.471
834.93	1.468
835.12	1.468
835.30	1.470
835.48	1.469
835.67	1.470
835.85	1.470
836.03	1.472
836.22	1.471
836.40	1.470
836.59	1.473
836.77	1.472
836.95	1.472
837.14	1.474
837.32	1.475
837.50	1.474
837.69	1.477
837.87	1.475
838.05	1.476
838.24	1.475
838.42	1.479
838.60	1.479
838.79	1.479
838.97	1.480
839.15	1.480
839.34	1.482
839.52	1.480
839.70	1.481
839.89	1.482
840.07	1.482
840.25	1.486
840.44	1.486
840.62	1.487
840.80	1.487
840.99	1.486
841.17	1.486
841.35	1.486
841.54	1.486
841.72	1.487
841.90	1.484
842.09	1.484
842.27	1.482
842.45	1.483
842.64	1.485
842.82	1.485
843.00	1.483
843.19	1.483
843.37	1.484
843.55	1.483
843.73	1.482
843.92	1.481
844.10	1.480
844.28	1.480
844.47	1.480
844.65	1.479
844.83	1.478
845.01	1.477
845.20	1.477
845.38	1.479
845.56	1.480
845.75	1.483
845.93	1.485
846.11	1.485
846.29	1.483
846.48	1.481
846.66	1.480
846.84	1.481
847.02	1.479
847.21	1.479
847.39	1.478
847.57	1.479
847.76	1.479
847.94	1.477
848.12	1.477
848.30	1.477
848.49	1.479
848.67	1.479
848.85	1.480
849.03	1.481
849.22	1.479
849.40	1.478
849.58	1.476
849.76	1.473
849.95	1.471
850.13	1.473
850.31	1.474
850.49	1.476
850.67	1.475
850.86	1.478
851.04	1.479
851.22	1.480
851.40	1.480
851.59	1.481
851.77	1.482
851.95	1.482
852.13	1.481
852.31	1.482
852.50	1.481
852.68	1.484
852.86	1.483
853.04	1.484
853.23	1.484
853.41	1.484
853.59	1.486
853.77	1.486
853.95	1.487
854.14	1.486
854.32	1.483
854.50	1.483
854.68	1.481
854.86	1.481
855.04	1.480
855.23	1.478
855.41	1.478
855.59	1.477
855.77	1.477
855.95	1.478
856.14	1.477
856.32	1.478
856.50	1.476
856.68	1.479
856.86	1.480
857.04	1.481
857.23	1.482
857.41	1.483
857.59	1.484
857.77	1.483
857.95	1.483
858.13	1.483
858.32	1.484
858.50	1.486
858.68	1.485
858.86	1.488
859.04	1.490
859.22	1.493
859.41	1.492
859.59	1.495
859.77	1.494
859.95	1.494
860.13	1.495
860.31	1.494
860.49	1.493
860.68	1.492
860.86	1.492
861.04	1.492
861.22	1.489
861.40	1.489
861.58	1.491
861.76	1.492
861.94	1.491
862.13	1.493
862.31	1.492
862.49	1.492
862.67	1.493
862.85	1.492
863.03	1.489
863.21	1.490
863.39	1.488
863.57	1.488
863.76	1.489
863.94	1.488
864.12	1.487
864.30	1.486
864.48	1.485
864.66	1.485
864.84	1.487
865.02	1.488
865.20	1.490
865.38	1.489
865.57	1.488
865.75	1.491
865.93	1.489
866.11	1.488
866.29	1.489
866.47	1.488
866.65	1.487
866.83	1.488
867.01	1.488
867.19	1.485
867.37	1.484
867.55	1.486
867.73	1.486
867.92	1.488
868.10	1.489
868.28	1.490
868.46	1.491
868.64	1.486
868.82	1.486
869.00	1.484
869.18	1.483
869.36	1.484
869.54	1.483
869.72	1.484
869.90	1.484
870.08	1.484
870.26	1.482
870.44	1.485
870.62	1.483
870.80	1.485
870.98	1.487
871.16	1.489
871.34	1.485
871.53	1.485
871.71	1.483
871.89	1.482
872.07	1.480
872.25	1.481
872.43	1.481
872.61	1.484
872.79	1.484
872.97	1.484
873.15	1.482
873.33	1.481
873.51	1.478
873.69	1.479
873.87	1.479
874.05	1.480
874.23	1.478
874.41	1.480
874.59	1.478
874.77	1.480
874.95	1.480
875.13	1.483
875.31	1.482
875.49	1.481
875.67	1.480
875.85	1.481
876.03	1.481
876.21	1.482
876.39	1.481
876.57	1.481
876.75	1.483
876.93	1.484
877.11	1.486
877.29	1.488
877.47	1.487
877.65	1.485
877.82	1.486
878.00	1.488
878.18	1.485
878.36	1.488
878.54	1.488
878.72	1.487
878.90	1.487
879.08	1.487
879.26	1.489
879.44	1.489
879.62	1.490
879.80	1.489
879.98	1.490
880.16	1.489
880.34	1.490
880.52	1.489
880.70	1.490
880.88	1.489
881.06	1.487
881.24	1.487
881.42	1.491
881.59	1.489
881.77	1.488
881.95	1.488
882.13	1.487
882.31	1.487
882.49	1.488
882.67	1.488
882.85	1.488
883.03	1.489
883.21	1.491
883.39	1.490
883.57	1.491
883.75	1.491
883.92	1.492
884.10	1.493
884.28	1.492
884.46	1.491
884.64	1.492
884.82	1.494
885.00	1.495
885.18	1.496
885.36	1.495
885.54	1.496
885.71	1.497
885.89	1.497
886.07	1.497
886.25	1.494
886.43	1.495
886.61	1.497
886.79	1.497
886.97	1.497
887.15	1.497
887.32	1.496
887.50	1.496
887.68	1.496
887.86	1.495
888.04	1.494
888.22	1.494
888.40	1.495
888.57	1.494
888.75	1.493
888.93	1.492
889.11	1.494
889.29	1.492
889.47	1.494
889.65	1.495
889.82	1.494
890.00	1.497
890.18	1.495
890.36	1.494
890.54	1.493
890.72	1.494
890.90	1.494
891.07	1.495
891.25	1.497
891.43	1.497
891.61	1.497
891.79	1.499
891.97	1.499
892.14	1.498
892.32	1.501
892.50	1.502
892.68	1.500
892.86	1.501
893.03	1.503
893.21	1.502
893.39	1.501
893.57	1.502
893.75	1.503
893.93	1.505
894.10	1.507
894.28	1.507
894.46	1.506
894.64	1.506
894.82	1.505
894.99	1.501
895.17	1.499
895.35	1.500
895.53	1.500
895.71	1.501
895.88	1.501
896.06	1.500
896.24	1.500
896.42	1.501
896.59	1.499
896.77	1.500
896.95	1.502
897.13	1.502
897.31	1.503
897.48	1.502
897.66	1.501
897.84	1.501
898.02	1.500
898.19	1.501
898.37	1.502
898.55	1.502
898.73	1.503
898.91	1.504
899.08	1.503
899.26	1.504
899.44	1.505
899.62	1.506
899.79	1.507
899.97	1.506
900.15	1.507
900.33	1.508
900.50	1.508
900.68	1.506
900.86	1.506
901.04	1.507
901.21	1.508
901.39	1.509
901.57	1.509
901.74	1.510
901.92	1.510
902.10	1.510
902.28	1.508
902.45	1.509
902.63	1.510
902.81	1.509
902.99	1.509
903.16	1.509
903.34	1.509
903.52	1.508
903.69	1.508
903.87	1.505
904.05	1.505
904.22	1.505
904.40	1.505
904.58	1.505
904.76	1.505
904.93	1.503
905.11	1.500
905.29	1.498
905.46	1.499
905.64	1.498
905.82	1.498
905.99	1.500
906.17	1.501
906.35	1.501
906.53	1.502
906.70	1.502
906.88	1.502
907.06	1.501
907.23	1.503
907.41	1.502
907.59	1.505
907.76	1.505
907.94	1.505
908.12	1.503
908.29	1.503
908.47	1.501
908.65	1.501
908.82	1.504
909.00	1.505
909.18	1.503
909.35	1.505
909.53	1.508
909.71	1.507
909.88	1.508
910.06	1.510
910.23	1.509
910.41	1.509
910.59	1.507
910.76	1.507
910.94	1.507
911.12	1.508
911.29	1.507
911.47	1.506
911.65	1.506
911.82	1.508
912.00	1.509
912.17	1.511
912.35	1.512
912.53	1.509
912.70	1.509
912.88	1.511
913.06	1.511
913.23	1.508
913.41	1.508
913.58	1.506
913.76	1.504
913.94	1.504
914.11	1.503
914.29	1.501
914.46	1.501
914.64	1.500
914.82	1.499
914.99	1.498
915.17	1.499
915.34	1.501
915.52	1.502
915.70	1.502
915.87	1.501
916.05	1.500
916.22	1.501
916.40	1.502
916.57	1.499
916.75	1.499
916.93	1.498
917.10	1.498
917.28	1.498
917.45	1.497
917.63	1.498
917.80	1.498
917.98	1.501
918.16	1.499
918.33	1.501
918.51	1.504
918.68	1.504
918.86	1.505
919.03	1.503
919.21	1.504
919.39	1.502
919.56	1.501
919.74	1.502
919.91	1.499
920.09	1.499
920.26	1.499
920.44	1.497
920.61	1.499
920.79	1.501
920.96	1.500
921.14	1.501
921.31	1.501
921.49	1.500
921.67	1.501
921.84	1.500
922.02	1.498
922.19	1.495
922.37	1.497
922.54	1.495
922.72	1.494
922.89	1.493
923.07	1.494
923.24	1.495
923.42	1.498
923.59	1.498
923.77	1.499
923.94	1.498
924.12	1.498
924.29	1.497
924.47	1.498
924.64	1.499
924.82	1.498
924.99	1.500
925.17	1.504
925.34	1.503
925.52	1.505
925.69	1.504
925.87	1.505
926.04	1.503
926.22	1.506
926.39	1.507
926.57	1.506
926.74	1.506
926.91	1.504
927.09	1.502
927.26	1.504
927.44	1.506
927.61	1.509
927.79	1.511
927.96	1.513
928.14	1.512
928.31	1.512
928.49	1.514
928.66	1.512
928.84	1.508
929.01	1.508
929.18	1.510
929.36	1.510
929.53	1.508
929.71	1.511
929.88	1.513
930.06	1.514
930.23	1.516
930.41	1.517
930.58	1.517
930.75	1.518
930.93	1.518
931.10	1.515
931.28	1.514
931.45	1.515
931.63	1.514
931.80	1.514
931.97	1.512
932.15	1.513
932.32	1.512
932.50	1.514
932.67	1.514
932.84	1.513
933.02	1.514
933.19	1.513
933.37	1.511
933.54	1.507
933.71	1.504
933.89	1.505
934.06	1.501
934.24	1.502
934.41	1.501
934.58	1.504
934.76	1.505
934.93	1.505
935.11	1.502
935.28	1.502
935.45	1.501
935.63	1.500
935.80	1.497
935.98	1.499
936.15	1.502
936.32	1.503
936.50	1.504
936.67	1.503
936.84	1.505
937.02	1.502
937.19	1.505
937.36	1.508
937.54	1.506
937.71	1.510
937.89	1.511
938.06	1.514
938.23	1.513
938.41	1.512
938.58	1.512
938.75	1.513
938.93	1.513
939.10	1.513
939.27	1.514
939.45	1.513
939.62	1.513
939.79	1.511
939.97	1.510
940.14	1.510
940.31	1.512
940.49	1.513
940.66	1.518
940.83	1.516
941.01	1.516
941.18	1.516
941.35	1.517
941.53	1.514
941.70	1.511
941.87	1.506
942.05	1.508
942.22	1.508
942.39	1.509
942.57	1.509
942.74	1.508
942.91	1.508
943.08	1.508
943.26	1.507
943.43	1.507
943.60	1.507
943.78	1.506
943.95	1.503
944.12	1.502
944.29	1.501
944.47	1.503
944.64	1.502
944.81	1.502
944.99	1.501
945.16	1.502
945.33	1.503
945.50	1.504
945.68	1.501
945.85	1.504
946.02	1.502
946.20	1.501
946.37	1.499
946.54	1.501
946.71	1.502
946.89	1.502
947.06	1.503
947.23	1.505
947.40	1.505
947.58	1.508
947.75	1.510
947.92	1.507
948.09	1.504
948.27	1.504
948.44	1.504
948.61	1.500
948.78	1.500
948.96	1.500
949.13	1.502
949.30	1.504
949.47	1.504
949.65	1.502
949.82	1.504
949.99	1.506
950.16	1.503
950.33	1.507
950.51	1.504
950.68	1.503
950.85	1.502
951.02	1.503
951.20	1.504
951.37	1.506
951.54	1.508
951.71	1.509
951.88	1.510
952.06	1.510
952.23	1.511
952.40	1.510
952.57	1.509
952.74	1.512
952.92	1.512
953.09	1.511
953.26	1.513
953.43	1.513
953.60	1.512
953.77	1.509
953.95	1.508
954.12	1.514
954.29	1.511
954.46	1.509
954.63	1.512
954.81	1.510
954.98	1.509
955.15	1.513
955.32	1.514
955.49	1.515
955.66	1.513
955.84	1.517
956.01	1.522
956.18	1.522
956.35	1.523
956.52	1.520
956.69	1.524
956.87	1.523
957.04	1.523
957.21	1.522
957.38	1.530
957.55	1.524
957.72	1.518
957.89	1.520
958.07	1.517
958.24	1.512
958.41	1.512
958.58	1.509
958.75	1.504
958.92	1.502
959.09	1.505
959.26	1.507
959.44	1.508
959.61	1.503
959.78	1.503
959.95	1.499
960.12	1.502
960.29	1.495
960.46	1.498
960.63	1.497
960.81	1.500
960.98	1.500
961.15	1.507
961.32	1.507
961.49	1.510
961.66	1.515
961.83	1.514
962.00	1.512
962.17	1.515
962.34	1.517
962.52	1.515
962.69	1.510
962.86	1.506
963.03	1.508
963.20	1.513
963.37	1.509
963.54	1.506
963.71	1.503
963.88	1.504
964.05	1.505
964.22	1.504
964.39	1.505
964.56	1.503
964.74	1.500
964.91	1.507
965.08	1.509
965.25	1.506
965.42	1.508
965.59	1.512
965.76	1.508
965.93	1.507
966.10	1.511
966.27	1.507
966.44	1.503
966.61	1.495
966.78	1.493
966.95	1.500
967.12	1.508
967.29	1.510
967.46	1.511
967.63	1.511
967.80	1.512
967.97	1.512
968.14	1.514
968.32	1.517
968.49	1.514
968.66	1.518
968.83	1.522
969.00	1.519
969.17	1.521
969.34	1.519
969.51	1.522
969.68	1.513
969.85	1.516
970.02	1.517
970.19	1.527
970.36	1.523
970.53	1.518
970.70	1.515
970.87	1.518
971.04	1.513
971.21	1.510
971.38	1.515
971.55	1.515
971.72	1.518
971.89	1.516
972.06	1.514
972.23	1.511
972.40	1.508
972.57	1.512
972.74	1.507
972.91	1.510
973.07	1.507
973.24	1.511
973.41	1.514
973.58	1.518
973.75	1.519
973.92	1.522
974.09	1.532
974.26	1.534
974.43	1.528
974.60	1.535
974.77	1.537
974.94	1.535
975.11	1.538
975.28	1.531
975.45	1.530
975.62	1.533
975.79	1.530
975.96	1.526
976.13	1.529
976.30	1.527
976.47	1.524
976.64	1.523
976.80	1.523
976.97	1.524
977.14	1.529
977.31	1.521
977.48	1.526
977.65	1.520
977.82	1.522
977.99	1.524
978.16	1.522
978.33	1.522
978.50	1.523
978.67	1.515
978.83	1.513
979.00	1.511
979.17	1.506
979.34	1.508
979.51	1.512
979.68	1.512
979.85	1.515
980.02	1.520
980.19	1.526
980.36	1.531
980.52	1.532
980.69	1.525
980.86	1.530
981.03	1.525
981.20	1.525
981.37	1.528
981.54	1.525
981.71	1.520
981.88	1.519
982.04	1.518
982.21	1.523
982.38	1.523
982.55	1.524
982.72	1.526
982.89	1.526
983.06	1.526
983.22	1.520
983.39	1.520
983.56	1.524
983.73	1.518
983.90	1.516
984.07	1.507
984.24	1.512
984.40	1.507
984.57	1.501
984.74	1.499
984.91	1.496
985.08	1.497
985.25	1.503
985.41	1.504
985.58	1.507
985.75	1.509
985.92	1.514
986.09	1.522
986.26	1.531
986.42	1.530
986.59	1.528
986.76	1.533
986.93	1.537
987.10	1.535
987.27	1.538
987.43	1.545
987.60	1.551
987.77	1.548
987.94	1.541
988.11	1.539
988.27	1.535
988.44	1.536
988.61	1.540
988.78	1.544
988.95	1.542
989.11	1.539
989.28	1.541
989.45	1.554
989.62	1.548
989.79	1.538
989.95	1.537
990.12	1.536
990.29	1.538
990.46	1.529
990.62	1.525
990.79	1.522
990.96	1.517
991.13	1.520
991.30	1.524
991.46	1.541
991.63	1.550
991.80	1.551
991.97	1.542
992.13	1.544
992.30	1.536
992.47	1.541
992.64	1.544
992.80	1.541
992.97	1.536
993.14	1.538
993.31	1.531
993.47	1.538
993.64	1.548
993.81	1.552
993.98	1.558
994.14	1.552
994.31	1.557
994.48	1.548
994.64	1.549
994.81	1.548
994.98	1.541
995.15	1.546
995.31	1.547
995.48	1.561
995.65	1.564
995.82	1.576
995.98	1.573
996.15	1.569
996.32	1.557
996.48	1.539
996.65	1.542
996.82	1.555
996.99	1.557
997.15	1.549
997.32	1.544
997.49	1.545
997.65	1.553
997.82	1.549
997.99	1.563
998.15	1.563
998.32	1.559
998.49	1.560
998.65	1.557
998.82	1.559
998.99	1.548
999.15	1.550
999.32	1.532
999.49	1.527
999.65	1.530
999.82	1.544
999.99	1.541
1000.15	1.533
1000.32	1.534
1000.49	1.527
1000.65	1.529
1000.82	1.522
1000.99	1.520
1001.15	1.521
1001.32	1.523
1001.49	1.516
1001.65	1.509
1001.82	1.512
1001.99	1.517
1002.15	1.520
1002.32	1.518
1002.49	1.510
1002.65	1.498
1002.82	1.510
1002.99	1.519
1003.15	1.514
1003.32	1.513
1003.48	1.524
1003.65	1.528
1003.82	1.530
1003.98	1.531
1004.15	1.527
1004.32	1.538
1004.48	1.537
1004.65	1.535
1004.81	1.531
1004.98	1.535
1005.15	1.547
1005.31	1.552
1005.48	1.546
1005.64	1.548
1005.81	1.551
1005.98	1.565
1006.14	1.578
1006.31	1.583
1006.47	1.565
1006.64	1.569
1006.81	1.558
1006.97	1.556
1007.14	1.541
1007.30	1.540
1007.47	1.541
1007.63	1.529
1007.80	1.535
1007.97	1.542
1008.13	1.533
1008.30	1.543
1008.46	1.530
1008.63	1.529
1008.79	1.514
1008.96	1.514
1009.13	1.509
1009.29	1.513
1009.46	1.525
1009.62	1.516
1009.79	1.512
1009.95	1.529
1010.12	1.522
1010.28	1.536
1010.45	1.538
1010.62	1.544
1010.78	1.535
1010.95	1.534
1011.11	1.546
1011.28	1.531
1011.44	1.531
1011.61	1.543
1011.77	1.525
1011.94	1.537
1012.10	1.539
1012.27	1.556
1012.43	1.555
1012.60	1.553
1012.76	1.546
1012.93	1.538
1013.10	1.527
1013.26	1.529
1013.43	1.534
1013.59	1.534
1013.76	1.514
1013.92	1.530
1014.09	1.536
1014.25	1.534
1014.42	1.535
1014.58	1.546
1014.75	1.555
1014.91	1.548
1015.08	1.556
1015.24	1.563
1015.41	1.554
1015.57	1.539
1015.73	1.530
1015.90	1.537
1016.06	1.543
1016.23	1.538
1016.39	1.532
1016.56	1.548
1016.72	1.542
1016.89	1.539
1017.05	1.540
1017.22	1.545
1017.38	1.529
1017.55	1.523
1017.71	1.519
1017.88	1.519
1018.04	1.513
1018.21	1.509
1018.37	1.496
1018.53	1.493
1018.70	1.503
1018.86	1.504
1019.03	1.503
1019.19	1.504
1019.36	1.507
1019.52	1.508
1019.69	1.524
1019.85	1.514
1020.01	1.513
1020.18	1.510
1020.34	1.492
1020.51	1.493
1020.67	1.508
1020.84	1.512
1021.00	1.510
1021.16	1.510
1021.33	1.518
1021.49	1.518
1021.66	1.517
1021.82	1.532
1021.98	1.528
1022.15	1.538
1022.31	1.533
1022.48	1.550
1022.64	1.544
1022.80	1.530
1022.97	1.513
1023.13	1.519
1023.30	1.527
1023.46	1.529
1023.62	1.538
1023.79	1.552
1023.95	1.548
1024.12	1.546
1024.28	1.547
1024.44	1.551
1024.61	1.558
1024.77	1.552
1024.93	1.540
1025.10	1.545
1025.26	1.551
1025.43	1.553
1025.59	1.547
1025.75	1.541
1025.92	1.536
1026.08	1.545
1026.24	1.541
1026.41	1.549
1026.57	1.549
1026.73	1.552
1026.90	1.547
1027.06	1.525
1027.23	1.519
1027.39	1.533
1027.55	1.542
1027.72	1.560
1027.88	1.576
1028.04	1.589
1028.21	1.575
1028.37	1.588
1028.53	1.596
1028.70	1.584
1028.86	1.577
1029.02	1.575
1029.19	1.571
1029.35	1.567
1029.51	1.585
1029.67	1.581
1029.84	1.582
1030.00	1.575
1030.16	1.589
1030.33	1.568
1030.49	1.577
1030.65	1.583
1030.82	1.576
1030.98	1.558
1031.14	1.534
1031.31	1.525
1031.47	1.539
1031.63	1.546
1031.79	1.543
1031.96	1.536
1032.12	1.551
1032.28	1.564
1032.45	1.550
1032.61	1.559
1032.77	1.567
1032.93	1.555
1033.10	1.569
1033.26	1.589
1033.42	1.570
1033.58	1.553
1033.75	1.562
1033.91	1.593
1034.07	1.612
1034.24	1.619
1034.40	1.611
1034.56	1.623
1034.72	1.634
1034.89	1.588
1035.05	1.603
1035.21	1.584
1035.37	1.601
1035.54	1.581
1035.70	1.569
1035.86	1.600
1036.02	1.611
1036.19	1.610
1036.35	1.606
1036.51	1.601
1036.67	1.589
1036.83	1.589
1037.00	1.591
1037.16	1.603
1037.32	1.589
1037.48	1.577
1037.65	1.563
1037.81	1.568
1037.97	1.542
1038.13	1.542
1038.29	1.573
1038.46	1.563
1038.62	1.581
1038.78	1.570
1038.94	1.554
1039.10	1.547
1039.27	1.542
1039.43	1.546
1039.59	1.526
1039.75	1.515
1039.91	1.521
1040.08	1.511
1040.24	1.518
1040.40	1.512
1040.56	1.511
1040.72	1.503
1040.89	1.496
1041.05	1.499
1041.21	1.499
1041.37	1.491
1041.53	1.496
1041.69	1.472
1041.86	1.486
1042.02	1.501
1042.18	1.501
1042.34	1.508
1042.50	1.497
1042.66	1.489
1042.83	1.515
1042.99	1.535
1043.15	1.536
1043.31	1.521
1043.47	1.543
1043.63	1.541
1043.79	1.540
1043.96	1.534
1044.12	1.515
1044.28	1.537
1044.44	1.540
1044.60	1.556
1044.76	1.588
1044.92	1.574
1045.09	1.609
1045.25	1.586
1045.41	1.402
1045.57	1.324
1045.73	1.174
1045.89	-0.000
1046.05	1.630
1046.21	1.993
1046.38	1.591
1046.54	1.588
1046.70	2.896
1046.86	1.523
>>>>>End Processed Spectral Data<<<<<
