SpectraSuite Data File
++++++++++++++++++++++++++++++++++++
Date: Mon May 06 14:15:37 CDT 2013
User: Students
Dark Spectrum Present: Yes
Reference Spectrum Present: Yes
Number of Sampled Component Spectra: 1
Spectrometers: USB4H00887
Integration Time (usec): 25000 (USB4H00887)
Spectra Averaged: 10 (USB4H00887)
Boxcar Smoothing: 10 (USB4H00887)
Correct for Electrical Dark: No (USB4H00887)
Strobe/Lamp Enabled: No (USB4H00887)
Correct for Detector Non-linearity: No (USB4H00887)
Correct for Stray Light: No (USB4H00887)
Number of Pixels in Processed Spectrum: 3648
>>>>>Begin Processed Spectral Data<<<<<
345.83	-0.312
346.05	-0.312
346.26	-0.312
346.48	-0.376
346.70	0.133
346.92	0.954
347.14	-0.000
347.35	0.034
347.57	-0.418
347.79	-0.000
348.01	0.030
348.23	0.179
348.44	0.268
348.66	0.497
348.88	0.575
349.10	0.589
349.32	0.612
349.53	0.628
349.75	1.007
349.97	-0.000
350.19	1.415
350.41	-0.000
350.62	-0.000
350.84	-0.000
351.06	-0.000
351.28	-0.000
351.50	-0.000
351.71	-0.000
351.93	-0.000
352.15	-0.000
352.37	-0.000
352.58	-0.000
352.80	-0.000
353.02	-0.000
353.24	-0.000
353.46	-0.000
353.67	-0.000
353.89	-0.000
354.11	-0.000
354.33	-0.000
354.54	-0.000
354.76	-0.000
354.98	-0.000
355.20	-0.000
355.41	-0.000
355.63	-0.000
355.85	-0.000
356.07	-0.000
356.28	-0.000
356.50	-0.000
356.72	-0.000
356.94	-0.000
357.15	-0.000
357.37	2.006
357.59	1.585
357.81	1.863
358.02	-0.000
358.24	-0.000
358.46	-0.000
358.68	1.686
358.89	1.474
359.11	1.851
359.33	1.278
359.55	0.905
359.76	0.896
359.98	0.862
360.20	1.163
360.42	1.200
360.63	1.281
360.85	1.054
361.07	1.336
361.29	0.909
361.50	1.330
361.72	-0.000
361.94	-0.000
362.15	-0.000
362.37	-0.000
362.59	-0.000
362.81	-0.000
363.02	-0.000
363.24	-0.000
363.46	-0.000
363.68	-0.000
363.89	-0.000
364.11	-0.000
364.33	-0.000
364.54	-0.000
364.76	-0.000
364.98	-0.000
365.20	-0.000
365.41	-0.000
365.63	-0.000
365.85	-0.000
366.06	-0.000
366.28	-0.000
366.50	-0.000
366.71	-0.000
366.93	-0.000
367.15	-0.000
367.37	-0.000
367.58	-0.000
367.80	-0.000
368.02	-0.000
368.23	-0.000
368.45	-0.000
368.67	-0.000
368.88	-0.000
369.10	-0.000
369.32	-0.000
369.53	-0.000
369.75	-0.000
369.97	-0.000
370.19	-0.000
370.40	-0.000
370.62	-0.000
370.84	-0.000
371.05	-0.000
371.27	-0.000
371.49	-0.000
371.70	-0.000
371.92	-0.000
372.14	-0.000
372.35	-0.000
372.57	-0.000
372.79	-0.000
373.00	1.478
373.22	-0.000
373.44	-0.000
373.65	-0.000
373.87	-0.000
374.09	-0.000
374.30	-0.000
374.52	2.418
374.74	-0.000
374.95	1.596
375.17	-0.000
375.39	-0.000
375.60	13.945
375.82	-0.000
376.04	1.697
376.25	-0.000
376.47	-0.000
376.68	-0.000
376.90	-0.000
377.12	-0.000
377.33	-0.000
377.55	-0.000
377.77	-0.000
377.98	-0.000
378.20	-0.000
378.42	-0.000
378.63	-0.000
378.85	-0.000
379.07	-0.000
379.28	-0.000
379.50	-0.000
379.71	-0.000
379.93	-0.000
380.15	-0.000
380.36	-0.000
380.58	-0.000
380.80	-0.000
381.01	-0.000
381.23	-0.000
381.44	-0.000
381.66	-0.000
381.88	-0.000
382.09	-0.000
382.31	-0.000
382.53	-0.000
382.74	-0.000
382.96	-0.000
383.17	-0.000
383.39	-0.000
383.61	-0.000
383.82	-0.000
384.04	-0.000
384.25	-0.000
384.47	-0.000
384.69	-0.000
384.90	-0.000
385.12	-0.000
385.33	-0.000
385.55	-0.000
385.77	-0.000
385.98	-0.000
386.20	-0.000
386.41	-0.000
386.63	-0.000
386.85	-0.000
387.06	-0.000
387.28	-0.000
387.49	-0.000
387.71	-0.000
387.93	-0.000
388.14	-0.000
388.36	-0.000
388.57	-0.000
388.79	-0.000
389.01	-0.000
389.22	-0.000
389.44	-0.000
389.65	-0.000
389.87	-0.000
390.08	-0.000
390.30	-0.000
390.52	-0.000
390.73	-0.000
390.95	-0.000
391.16	1.601
391.38	-0.000
391.59	-0.000
391.81	-0.000
392.03	-0.000
392.24	-0.000
392.46	-0.000
392.67	-0.000
392.89	-0.000
393.10	-0.000
393.32	-0.000
393.53	-0.000
393.75	-0.000
393.97	-0.000
394.18	-0.000
394.40	-0.000
394.61	-0.000
394.83	-0.000
395.04	-0.000
395.26	-0.000
395.47	-0.000
395.69	-0.000
395.91	-0.000
396.12	2.725
396.34	1.569
396.55	1.576
396.77	1.305
396.98	1.243
397.20	1.263
397.41	1.395
397.63	1.087
397.84	1.234
398.06	1.241
398.27	1.400
398.49	1.196
398.71	1.372
398.92	1.306
399.14	1.262
399.35	1.377
399.57	1.444
399.78	1.524
400.00	1.662
400.21	1.332
400.43	1.286
400.64	1.199
400.86	1.231
401.07	1.189
401.29	1.180
401.50	1.205
401.72	1.313
401.93	1.228
402.15	1.347
402.36	1.299
402.58	1.308
402.79	1.250
403.01	1.475
403.22	1.421
403.44	1.491
403.65	1.357
403.87	1.291
404.08	1.399
404.30	1.473
404.51	1.398
404.73	1.688
404.94	1.959
405.16	2.630
405.37	-0.000
405.59	-0.000
405.80	-0.000
406.02	-0.000
406.23	-0.000
406.45	-0.000
406.66	-0.000
406.88	-0.000
407.09	-0.000
407.31	-0.000
407.52	-0.000
407.74	-0.000
407.95	-0.000
408.17	-0.000
408.38	-0.000
408.60	-0.000
408.81	-0.000
409.03	-0.000
409.24	-0.000
409.45	-0.000
409.67	-0.000
409.88	-0.000
410.10	-0.000
410.31	-0.000
410.53	-0.000
410.74	-0.000
410.96	-0.000
411.17	-0.000
411.39	-0.000
411.60	-0.000
411.82	-0.000
412.03	-0.000
412.24	-0.000
412.46	-0.000
412.67	-0.000
412.89	-0.000
413.10	-0.000
413.32	-0.000
413.53	-0.000
413.75	-0.000
413.96	-0.000
414.17	-0.000
414.39	-0.000
414.60	-0.000
414.82	-0.000
415.03	1.858
415.25	2.639
415.46	-0.000
415.68	-0.000
415.89	-0.000
416.10	-0.000
416.32	-0.000
416.53	2.025
416.75	2.273
416.96	1.985
417.18	1.762
417.39	2.136
417.60	2.478
417.82	1.651
418.03	1.886
418.25	1.907
418.46	1.763
418.67	1.953
418.89	-0.000
419.10	-0.000
419.32	-0.000
419.53	-0.000
419.75	-0.000
419.96	-0.000
420.17	-0.000
420.39	-0.000
420.60	-0.000
420.82	-0.000
421.03	-0.000
421.24	-0.000
421.46	-0.000
421.67	-0.000
421.89	-0.000
422.10	-0.000
422.31	-0.000
422.53	-0.000
422.74	-0.000
422.96	-0.000
423.17	-0.000
423.38	-0.000
423.60	-0.000
423.81	3.147
424.03	1.829
424.24	2.057
424.45	-0.000
424.67	3.541
424.88	2.231
425.09	2.876
425.31	-0.000
425.52	2.844
425.74	-0.000
425.95	-0.000
426.16	-0.000
426.38	-0.000
426.59	-0.000
426.80	-0.000
427.02	-0.000
427.23	-0.000
427.45	-0.000
427.66	-0.000
427.87	-0.000
428.09	-0.000
428.30	-0.000
428.51	-0.000
428.73	-0.000
428.94	2.080
429.15	2.186
429.37	2.008
429.58	1.850
429.79	1.691
430.01	1.651
430.22	1.523
430.44	1.435
430.65	1.476
430.86	1.385
431.08	1.343
431.29	1.459
431.50	1.445
431.72	1.547
431.93	1.442
432.14	1.504
432.36	1.423
432.57	1.441
432.78	1.427
433.00	1.476
433.21	1.504
433.42	1.550
433.64	1.553
433.85	1.586
434.06	1.602
434.28	1.791
434.49	1.905
434.70	1.732
434.92	1.723
435.13	1.723
435.34	1.722
435.56	1.781
435.77	1.617
435.98	1.682
436.20	1.575
436.41	1.573
436.62	1.498
436.83	1.499
437.05	1.516
437.26	1.490
437.47	1.508
437.69	1.532
437.90	1.527
438.11	1.514
438.33	1.512
438.54	1.514
438.75	1.441
438.97	1.418
439.18	1.444
439.39	1.530
439.60	1.485
439.82	1.565
440.03	1.516
440.24	1.588
440.46	1.538
440.67	1.594
440.88	1.642
441.10	1.765
441.31	1.808
441.52	1.757
441.73	1.826
441.95	1.752
442.16	1.795
442.37	1.967
442.58	1.978
442.80	1.991
443.01	2.000
443.22	2.378
443.44	2.466
443.65	2.238
443.86	2.119
444.07	2.394
444.29	2.284
444.50	3.520
444.71	2.604
444.92	2.492
445.14	2.820
445.35	3.069
445.56	2.346
445.78	2.374
445.99	2.297
446.20	2.201
446.41	3.098
446.63	2.447
446.84	2.080
447.05	1.961
447.26	1.863
447.48	1.831
447.69	1.754
447.90	1.703
448.11	1.764
448.33	1.740
448.54	1.650
448.75	1.661
448.96	1.557
449.18	1.542
449.39	1.636
449.60	1.590
449.81	1.578
450.03	1.611
450.24	1.529
450.45	1.516
450.66	1.524
450.87	1.464
451.09	1.506
451.30	1.567
451.51	1.555
451.72	1.609
451.94	1.548
452.15	1.532
452.36	1.529
452.57	1.519
452.78	1.496
453.00	1.553
453.21	1.548
453.42	1.629
453.63	1.690
453.85	1.678
454.06	1.646
454.27	1.658
454.48	1.659
454.69	1.726
454.91	1.766
455.12	1.742
455.33	1.829
455.54	1.709
455.75	1.613
455.97	1.626
456.18	1.623
456.39	1.681
456.60	1.686
456.81	1.661
457.03	1.682
457.24	1.663
457.45	1.666
457.66	1.690
457.87	1.680
458.09	1.647
458.30	1.591
458.51	1.620
458.72	1.650
458.93	1.622
459.15	1.651
459.36	1.631
459.57	1.602
459.78	1.592
459.99	1.669
460.20	1.730
460.42	1.807
460.63	1.799
460.84	1.838
461.05	1.848
461.26	1.926
461.47	1.897
461.69	1.901
461.90	1.833
462.11	1.772
462.32	1.711
462.53	1.668
462.74	1.682
462.96	1.646
463.17	1.621
463.38	1.646
463.59	1.607
463.80	1.660
464.01	1.682
464.23	1.701
464.44	1.626
464.65	1.579
464.86	1.539
465.07	1.540
465.28	1.544
465.49	1.556
465.71	1.541
465.92	1.527
466.13	1.564
466.34	1.565
466.55	1.590
466.76	1.605
466.97	1.658
467.19	1.628
467.40	1.658
467.61	1.656
467.82	1.620
468.03	1.643
468.24	1.631
468.45	1.607
468.66	1.586
468.88	1.604
469.09	1.632
469.30	1.617
469.51	1.584
469.72	1.591
469.93	1.561
470.14	1.543
470.35	1.577
470.57	1.567
470.78	1.596
470.99	1.591
471.20	1.589
471.41	1.573
471.62	1.642
471.83	1.609
472.04	1.604
472.25	1.622
472.47	1.628
472.68	1.598
472.89	1.608
473.10	1.590
473.31	1.583
473.52	1.577
473.73	1.594
473.94	1.623
474.15	1.617
474.36	1.613
474.57	1.605
474.79	1.609
475.00	1.599
475.21	1.578
475.42	1.587
475.63	1.603
475.84	1.597
476.05	1.571
476.26	1.591
476.47	1.599
476.68	1.596
476.89	1.599
477.10	1.596
477.32	1.605
477.53	1.629
477.74	1.645
477.95	1.636
478.16	1.657
478.37	1.647
478.58	1.637
478.79	1.654
479.00	1.683
479.21	1.657
479.42	1.649
479.63	1.650
479.84	1.638
480.05	1.620
480.26	1.620
480.47	1.604
480.69	1.607
480.90	1.611
481.11	1.615
481.32	1.606
481.53	1.629
481.74	1.652
481.95	1.650
482.16	1.642
482.37	1.644
482.58	1.611
482.79	1.608
483.00	1.602
483.21	1.616
483.42	1.592
483.63	1.590
483.84	1.601
484.05	1.598
484.26	1.598
484.47	1.614
484.68	1.620
484.89	1.632
485.10	1.622
485.31	1.621
485.52	1.618
485.73	1.595
485.94	1.587
486.15	1.555
486.37	1.556
486.58	1.565
486.79	1.577
487.00	1.590
487.21	1.601
487.42	1.603
487.63	1.585
487.84	1.590
488.05	1.611
488.26	1.603
488.47	1.605
488.68	1.615
488.89	1.608
489.10	1.603
489.31	1.595
489.52	1.601
489.73	1.607
489.94	1.596
490.15	1.618
490.36	1.611
490.57	1.620
490.78	1.615
490.99	1.609
491.20	1.609
491.41	1.610
491.62	1.605
491.83	1.613
492.04	1.611
492.25	1.623
492.45	1.614
492.66	1.621
492.87	1.614
493.08	1.613
493.29	1.622
493.50	1.624
493.71	1.625
493.92	1.624
494.13	1.617
494.34	1.621
494.55	1.622
494.76	1.629
494.97	1.641
495.18	1.649
495.39	1.638
495.60	1.621
495.81	1.607
496.02	1.598
496.23	1.601
496.44	1.600
496.65	1.597
496.86	1.594
497.07	1.588
497.28	1.592
497.49	1.587
497.70	1.588
497.91	1.595
498.12	1.604
498.32	1.602
498.53	1.616
498.74	1.624
498.95	1.631
499.16	1.636
499.37	1.620
499.58	1.623
499.79	1.630
500.00	1.651
500.21	1.666
500.42	1.665
500.63	1.670
500.84	1.676
501.05	1.676
501.26	1.690
501.46	1.695
501.67	1.700
501.88	1.701
502.09	1.689
502.30	1.689
502.51	1.694
502.72	1.710
502.93	1.703
503.14	1.696
503.35	1.693
503.56	1.687
503.77	1.696
503.97	1.690
504.18	1.688
504.39	1.680
504.60	1.689
504.81	1.697
505.02	1.694
505.23	1.703
505.44	1.702
505.65	1.687
505.86	1.695
506.07	1.701
506.27	1.715
506.48	1.720
506.69	1.705
506.90	1.693
507.11	1.701
507.32	1.695
507.53	1.710
507.74	1.707
507.95	1.711
508.15	1.721
508.36	1.715
508.57	1.730
508.78	1.737
508.99	1.746
509.20	1.744
509.41	1.723
509.62	1.725
509.82	1.728
510.03	1.737
510.24	1.739
510.45	1.741
510.66	1.734
510.87	1.734
511.08	1.745
511.29	1.761
511.49	1.749
511.70	1.749
511.91	1.750
512.12	1.746
512.33	1.744
512.54	1.738
512.75	1.746
512.95	1.740
513.16	1.735
513.37	1.722
513.58	1.720
513.79	1.744
514.00	1.740
514.20	1.727
514.41	1.720
514.62	1.722
514.83	1.713
515.04	1.715
515.25	1.713
515.46	1.708
515.66	1.701
515.87	1.697
516.08	1.696
516.29	1.680
516.50	1.681
516.71	1.685
516.91	1.688
517.12	1.684
517.33	1.683
517.54	1.692
517.75	1.699
517.95	1.714
518.16	1.708
518.37	1.704
518.58	1.715
518.79	1.722
519.00	1.720
519.20	1.728
519.41	1.724
519.62	1.725
519.83	1.742
520.04	1.750
520.24	1.740
520.45	1.750
520.66	1.759
520.87	1.760
521.08	1.762
521.28	1.765
521.49	1.760
521.70	1.761
521.91	1.755
522.12	1.765
522.32	1.757
522.53	1.762
522.74	1.771
522.95	1.777
523.16	1.776
523.36	1.767
523.57	1.757
523.78	1.758
523.99	1.757
524.20	1.749
524.40	1.745
524.61	1.759
524.82	1.753
525.03	1.762
525.23	1.767
525.44	1.775
525.65	1.770
525.86	1.782
526.06	1.788
526.27	1.780
526.48	1.762
526.69	1.775
526.90	1.764
527.10	1.769
527.31	1.764
527.52	1.768
527.73	1.779
527.93	1.791
528.14	1.790
528.35	1.801
528.56	1.791
528.76	1.795
528.97	1.801
529.18	1.806
529.39	1.796
529.59	1.799
529.80	1.788
530.01	1.800
530.22	1.799
530.42	1.801
530.63	1.814
530.84	1.818
531.05	1.800
531.25	1.806
531.46	1.792
531.67	1.796
531.88	1.793
532.08	1.802
532.29	1.800
532.50	1.805
532.70	1.802
532.91	1.810
533.12	1.811
533.33	1.806
533.53	1.799
533.74	1.812
533.95	1.805
534.15	1.806
534.36	1.799
534.57	1.800
534.78	1.805
534.98	1.803
535.19	1.796
535.40	1.794
535.60	1.791
535.81	1.795
536.02	1.795
536.23	1.805
536.43	1.793
536.64	1.797
536.85	1.801
537.05	1.793
537.26	1.790
537.47	1.781
537.67	1.778
537.88	1.782
538.09	1.772
538.30	1.783
538.50	1.787
538.71	1.788
538.92	1.784
539.12	1.778
539.33	1.770
539.54	1.768
539.74	1.770
539.95	1.774
540.16	1.779
540.36	1.784
540.57	1.772
540.78	1.768
540.98	1.766
541.19	1.760
541.40	1.770
541.60	1.771
541.81	1.773
542.02	1.770
542.22	1.771
542.43	1.767
542.64	1.758
542.84	1.754
543.05	1.756
543.26	1.764
543.46	1.760
543.67	1.775
543.88	1.776
544.08	1.784
544.29	1.780
544.50	1.782
544.70	1.767
544.91	1.772
545.12	1.776
545.32	1.771
545.53	1.771
545.74	1.771
545.94	1.777
546.15	1.770
546.35	1.775
546.56	1.769
546.77	1.776
546.97	1.780
547.18	1.781
547.39	1.777
547.59	1.773
547.80	1.776
548.01	1.764
548.21	1.765
548.42	1.766
548.62	1.778
548.83	1.773
549.04	1.781
549.24	1.774
549.45	1.783
549.65	1.779
549.86	1.772
550.07	1.767
550.27	1.763
550.48	1.768
550.69	1.763
550.89	1.764
551.10	1.763
551.30	1.764
551.51	1.770
551.72	1.778
551.92	1.773
552.13	1.769
552.33	1.773
552.54	1.777
552.75	1.768
552.95	1.758
553.16	1.756
553.36	1.768
553.57	1.773
553.78	1.764
553.98	1.780
554.19	1.785
554.39	1.788
554.60	1.784
554.80	1.789
555.01	1.795
555.22	1.799
555.42	1.800
555.63	1.792
555.83	1.790
556.04	1.786
556.25	1.788
556.45	1.788
556.66	1.788
556.86	1.779
557.07	1.780
557.27	1.781
557.48	1.781
557.68	1.768
557.89	1.768
558.10	1.770
558.30	1.759
558.51	1.759
558.71	1.758
558.92	1.760
559.12	1.761
559.33	1.762
559.54	1.758
559.74	1.755
559.95	1.756
560.15	1.755
560.36	1.753
560.56	1.752
560.77	1.755
560.97	1.752
561.18	1.754
561.38	1.757
561.59	1.755
561.79	1.756
562.00	1.759
562.21	1.764
562.41	1.755
562.62	1.757
562.82	1.752
563.03	1.756
563.23	1.753
563.44	1.752
563.64	1.747
563.85	1.754
564.05	1.748
564.26	1.750
564.46	1.745
564.67	1.747
564.87	1.751
565.08	1.755
565.28	1.753
565.49	1.763
565.69	1.768
565.90	1.771
566.10	1.772
566.31	1.764
566.51	1.756
566.72	1.759
566.92	1.752
567.13	1.754
567.33	1.752
567.54	1.755
567.74	1.751
567.95	1.752
568.15	1.746
568.36	1.754
568.56	1.750
568.77	1.748
568.97	1.739
569.18	1.739
569.38	1.740
569.59	1.745
569.79	1.741
570.00	1.735
570.20	1.742
570.41	1.739
570.61	1.740
570.82	1.748
571.02	1.755
571.23	1.764
571.43	1.769
571.64	1.762
571.84	1.764
572.05	1.767
572.25	1.762
572.45	1.759
572.66	1.765
572.86	1.769
573.07	1.770
573.27	1.773
573.48	1.773
573.68	1.772
573.89	1.763
574.09	1.758
574.30	1.761
574.50	1.750
574.70	1.759
574.91	1.764
575.11	1.770
575.32	1.760
575.52	1.756
575.73	1.755
575.93	1.755
576.14	1.750
576.34	1.747
576.54	1.756
576.75	1.759
576.95	1.754
577.16	1.755
577.36	1.755
577.57	1.760
577.77	1.757
577.97	1.752
578.18	1.760
578.38	1.764
578.59	1.754
578.79	1.758
579.00	1.748
579.20	1.747
579.40	1.737
579.61	1.742
579.81	1.741
580.02	1.739
580.22	1.743
580.42	1.744
580.63	1.744
580.83	1.738
581.04	1.742
581.24	1.739
581.45	1.738
581.65	1.738
581.85	1.741
582.06	1.743
582.26	1.736
582.47	1.731
582.67	1.736
582.87	1.738
583.08	1.733
583.28	1.737
583.48	1.744
583.69	1.740
583.89	1.738
584.10	1.739
584.30	1.743
584.50	1.742
584.71	1.744
584.91	1.745
585.12	1.741
585.32	1.736
585.52	1.744
585.73	1.746
585.93	1.746
586.13	1.745
586.34	1.745
586.54	1.758
586.75	1.764
586.95	1.755
587.15	1.760
587.36	1.765
587.56	1.757
587.76	1.751
587.97	1.754
588.17	1.756
588.37	1.756
588.58	1.751
588.78	1.753
588.98	1.749
589.19	1.749
589.39	1.755
589.60	1.757
589.80	1.748
590.00	1.745
590.21	1.747
590.41	1.742
590.61	1.742
590.82	1.733
591.02	1.725
591.22	1.728
591.43	1.726
591.63	1.731
591.83	1.740
592.04	1.736
592.24	1.737
592.44	1.740
592.65	1.743
592.85	1.745
593.05	1.742
593.26	1.746
593.46	1.739
593.66	1.742
593.86	1.740
594.07	1.745
594.27	1.746
594.47	1.744
594.68	1.743
594.88	1.736
595.08	1.739
595.29	1.740
595.49	1.741
595.69	1.745
595.90	1.737
596.10	1.733
596.30	1.736
596.50	1.731
596.71	1.723
596.91	1.725
597.11	1.722
597.32	1.720
597.52	1.720
597.72	1.725
597.93	1.722
598.13	1.726
598.33	1.725
598.53	1.722
598.74	1.723
598.94	1.726
599.14	1.734
599.35	1.737
599.55	1.740
599.75	1.740
599.95	1.739
600.16	1.741
600.36	1.746
600.56	1.742
600.76	1.748
600.97	1.752
601.17	1.751
601.37	1.756
601.58	1.759
601.78	1.761
601.98	1.766
602.18	1.769
602.39	1.760
602.59	1.758
602.79	1.765
602.99	1.765
603.20	1.768
603.40	1.765
603.60	1.762
603.80	1.767
604.01	1.768
604.21	1.769
604.41	1.771
604.61	1.768
604.82	1.778
605.02	1.773
605.22	1.770
605.42	1.768
605.62	1.760
605.83	1.759
606.03	1.765
606.23	1.756
606.43	1.756
606.64	1.761
606.84	1.759
607.04	1.752
607.24	1.752
607.45	1.750
607.65	1.751
607.85	1.750
608.05	1.749
608.25	1.748
608.46	1.749
608.66	1.748
608.86	1.748
609.06	1.748
609.26	1.755
609.47	1.758
609.67	1.763
609.87	1.770
610.07	1.771
610.28	1.763
610.48	1.763
610.68	1.757
610.88	1.760
611.08	1.762
611.29	1.762
611.49	1.768
611.69	1.767
611.89	1.767
612.09	1.766
612.29	1.765
612.50	1.770
612.70	1.767
612.90	1.766
613.10	1.764
613.30	1.762
613.51	1.757
613.71	1.757
613.91	1.750
614.11	1.749
614.31	1.746
614.51	1.747
614.72	1.755
614.92	1.756
615.12	1.758
615.32	1.758
615.52	1.760
615.72	1.755
615.93	1.757
616.13	1.751
616.33	1.755
616.53	1.757
616.73	1.751
616.93	1.751
617.14	1.751
617.34	1.749
617.54	1.746
617.74	1.746
617.94	1.743
618.14	1.747
618.34	1.750
618.55	1.756
618.75	1.758
618.95	1.758
619.15	1.760
619.35	1.755
619.55	1.763
619.75	1.762
619.96	1.766
620.16	1.761
620.36	1.767
620.56	1.764
620.76	1.756
620.96	1.757
621.16	1.761
621.36	1.762
621.57	1.763
621.77	1.762
621.97	1.761
622.17	1.763
622.37	1.762
622.57	1.762
622.77	1.760
622.97	1.759
623.18	1.757
623.38	1.759
623.58	1.760
623.78	1.756
623.98	1.753
624.18	1.743
624.38	1.746
624.58	1.747
624.78	1.743
624.98	1.744
625.19	1.743
625.39	1.740
625.59	1.736
625.79	1.736
625.99	1.739
626.19	1.744
626.39	1.738
626.59	1.745
626.79	1.744
626.99	1.736
627.19	1.735
627.40	1.733
627.60	1.730
627.80	1.732
628.00	1.729
628.20	1.733
628.40	1.741
628.60	1.734
628.80	1.735
629.00	1.739
629.20	1.742
629.40	1.747
629.60	1.746
629.80	1.753
630.00	1.755
630.20	1.759
630.41	1.755
630.61	1.757
630.81	1.753
631.01	1.752
631.21	1.760
631.41	1.761
631.61	1.762
631.81	1.771
632.01	1.768
632.21	1.775
632.41	1.779
632.61	1.777
632.81	1.780
633.01	1.784
633.21	1.781
633.41	1.780
633.61	1.778
633.81	1.776
634.01	1.778
634.21	1.779
634.41	1.771
634.61	1.773
634.81	1.775
635.01	1.773
635.22	1.771
635.42	1.770
635.62	1.775
635.82	1.777
636.02	1.769
636.22	1.773
636.42	1.769
636.62	1.766
636.82	1.767
637.02	1.767
637.22	1.766
637.42	1.769
637.62	1.768
637.82	1.766
638.02	1.769
638.22	1.766
638.42	1.769
638.62	1.772
638.82	1.772
639.02	1.776
639.22	1.780
639.42	1.784
639.62	1.782
639.82	1.785
640.02	1.784
640.22	1.785
640.42	1.782
640.62	1.780
640.82	1.779
641.02	1.782
641.22	1.791
641.42	1.787
641.61	1.789
641.81	1.793
642.01	1.795
642.21	1.795
642.41	1.797
642.61	1.797
642.81	1.801
643.01	1.802
643.21	1.798
643.41	1.802
643.61	1.798
643.81	1.798
644.01	1.793
644.21	1.796
644.41	1.797
644.61	1.797
644.81	1.799
645.01	1.800
645.21	1.802
645.41	1.796
645.61	1.796
645.81	1.792
646.01	1.791
646.21	1.789
646.40	1.789
646.60	1.786
646.80	1.780
647.00	1.778
647.20	1.776
647.40	1.778
647.60	1.775
647.80	1.777
648.00	1.777
648.20	1.778
648.40	1.776
648.60	1.778
648.80	1.780
649.00	1.780
649.20	1.775
649.39	1.775
649.59	1.774
649.79	1.778
649.99	1.781
650.19	1.783
650.39	1.786
650.59	1.787
650.79	1.786
650.99	1.788
651.19	1.786
651.39	1.791
651.58	1.792
651.78	1.787
651.98	1.787
652.18	1.789
652.38	1.792
652.58	1.791
652.78	1.787
652.98	1.785
653.18	1.787
653.38	1.793
653.57	1.789
653.77	1.792
653.97	1.790
654.17	1.785
654.37	1.784
654.57	1.782
654.77	1.782
654.97	1.784
655.16	1.786
655.36	1.783
655.56	1.779
655.76	1.776
655.96	1.778
656.16	1.778
656.36	1.775
656.56	1.773
656.75	1.775
656.95	1.780
657.15	1.782
657.35	1.780
657.55	1.782
657.75	1.785
657.95	1.784
658.14	1.783
658.34	1.783
658.54	1.781
658.74	1.779
658.94	1.779
659.14	1.782
659.34	1.782
659.53	1.783
659.73	1.782
659.93	1.788
660.13	1.791
660.33	1.787
660.53	1.792
660.72	1.794
660.92	1.791
661.12	1.788
661.32	1.787
661.52	1.786
661.72	1.785
661.91	1.786
662.11	1.783
662.31	1.782
662.51	1.788
662.71	1.791
662.90	1.791
663.10	1.792
663.30	1.789
663.50	1.788
663.70	1.789
663.90	1.790
664.09	1.783
664.29	1.780
664.49	1.784
664.69	1.778
664.89	1.778
665.08	1.780
665.28	1.784
665.48	1.783
665.68	1.787
665.88	1.782
666.07	1.779
666.27	1.782
666.47	1.787
666.67	1.788
666.87	1.788
667.06	1.791
667.26	1.786
667.46	1.788
667.66	1.789
667.85	1.794
668.05	1.794
668.25	1.798
668.45	1.798
668.65	1.799
668.84	1.804
669.04	1.809
669.24	1.808
669.44	1.808
669.63	1.808
669.83	1.813
670.03	1.818
670.23	1.822
670.42	1.824
670.62	1.820
670.82	1.815
671.02	1.817
671.22	1.818
671.41	1.820
671.61	1.821
671.81	1.822
672.01	1.819
672.20	1.819
672.40	1.818
672.60	1.820
672.80	1.818
672.99	1.817
673.19	1.814
673.39	1.809
673.58	1.803
673.78	1.805
673.98	1.802
674.18	1.799
674.37	1.802
674.57	1.803
674.77	1.801
674.97	1.805
675.16	1.802
675.36	1.801
675.56	1.805
675.75	1.802
675.95	1.801
676.15	1.801
676.35	1.801
676.54	1.807
676.74	1.804
676.94	1.805
677.13	1.806
677.33	1.803
677.53	1.810
677.73	1.816
677.92	1.813
678.12	1.808
678.32	1.808
678.51	1.800
678.71	1.798
678.91	1.803
679.11	1.806
679.30	1.807
679.50	1.806
679.70	1.809
679.89	1.810
680.09	1.811
680.29	1.813
680.48	1.815
680.68	1.811
680.88	1.816
681.07	1.817
681.27	1.820
681.47	1.815
681.66	1.820
681.86	1.822
682.06	1.827
682.25	1.828
682.45	1.824
682.65	1.824
682.84	1.823
683.04	1.819
683.24	1.817
683.43	1.822
683.63	1.826
683.83	1.826
684.02	1.827
684.22	1.826
684.42	1.824
684.61	1.822
684.81	1.821
685.01	1.822
685.20	1.821
685.40	1.818
685.60	1.829
685.79	1.821
685.99	1.818
686.19	1.815
686.38	1.814
686.58	1.818
686.77	1.822
686.97	1.824
687.17	1.823
687.36	1.824
687.56	1.820
687.76	1.820
687.95	1.813
688.15	1.817
688.34	1.817
688.54	1.816
688.74	1.814
688.93	1.814
689.13	1.813
689.33	1.819
689.52	1.821
689.72	1.815
689.91	1.820
690.11	1.819
690.31	1.818
690.50	1.828
690.70	1.827
690.89	1.827
691.09	1.832
691.29	1.835
691.48	1.835
691.68	1.836
691.87	1.836
692.07	1.835
692.27	1.832
692.46	1.832
692.66	1.835
692.85	1.837
693.05	1.841
693.25	1.835
693.44	1.829
693.64	1.829
693.83	1.829
694.03	1.832
694.22	1.829
694.42	1.832
694.62	1.822
694.81	1.828
695.01	1.829
695.20	1.822
695.40	1.823
695.59	1.821
695.79	1.819
695.99	1.820
696.18	1.825
696.38	1.821
696.57	1.824
696.77	1.822
696.96	1.823
697.16	1.824
697.36	1.827
697.55	1.828
697.75	1.828
697.94	1.829
698.14	1.823
698.33	1.826
698.53	1.826
698.72	1.832
698.92	1.828
699.11	1.824
699.31	1.826
699.51	1.819
699.70	1.821
699.90	1.823
700.09	1.818
700.29	1.815
700.48	1.818
700.68	1.813
700.87	1.814
701.07	1.817
701.26	1.817
701.46	1.821
701.65	1.822
701.85	1.820
702.04	1.821
702.24	1.821
702.43	1.824
702.63	1.827
702.82	1.827
703.02	1.829
703.21	1.830
703.41	1.831
703.60	1.840
703.80	1.843
703.99	1.844
704.19	1.849
704.38	1.855
704.58	1.858
704.77	1.864
704.97	1.864
705.16	1.861
705.36	1.858
705.55	1.855
705.75	1.852
705.94	1.855
706.14	1.853
706.33	1.855
706.53	1.851
706.72	1.845
706.92	1.846
707.11	1.847
707.31	1.849
707.50	1.847
707.70	1.836
707.89	1.836
708.09	1.833
708.28	1.838
708.48	1.833
708.67	1.832
708.86	1.829
709.06	1.829
709.25	1.830
709.45	1.832
709.64	1.830
709.84	1.835
710.03	1.835
710.23	1.835
710.42	1.836
710.62	1.841
710.81	1.843
711.00	1.847
711.20	1.847
711.39	1.851
711.59	1.853
711.78	1.860
711.98	1.858
712.17	1.859
712.37	1.861
712.56	1.862
712.75	1.860
712.95	1.859
713.14	1.859
713.34	1.860
713.53	1.855
713.73	1.857
713.92	1.856
714.11	1.857
714.31	1.859
714.50	1.857
714.70	1.853
714.89	1.854
715.08	1.850
715.28	1.849
715.47	1.846
715.67	1.843
715.86	1.842
716.06	1.843
716.25	1.843
716.44	1.836
716.64	1.835
716.83	1.837
717.03	1.841
717.22	1.840
717.41	1.844
717.61	1.846
717.80	1.849
717.99	1.848
718.19	1.840
718.38	1.836
718.58	1.833
718.77	1.830
718.96	1.831
719.16	1.835
719.35	1.834
719.55	1.838
719.74	1.839
719.93	1.837
720.13	1.836
720.32	1.840
720.51	1.844
720.71	1.842
720.90	1.840
721.10	1.838
721.29	1.838
721.48	1.834
721.68	1.838
721.87	1.841
722.06	1.845
722.26	1.854
722.45	1.855
722.64	1.859
722.84	1.866
723.03	1.867
723.22	1.866
723.42	1.865
723.61	1.860
723.80	1.863
724.00	1.872
724.19	1.874
724.38	1.873
724.58	1.869
724.77	1.877
724.96	1.879
725.16	1.882
725.35	1.884
725.54	1.889
725.74	1.885
725.93	1.880
726.12	1.878
726.32	1.878
726.51	1.881
726.70	1.883
726.90	1.883
727.09	1.880
727.28	1.884
727.48	1.883
727.67	1.887
727.86	1.884
728.06	1.879
728.25	1.879
728.44	1.877
728.64	1.878
728.83	1.871
729.02	1.872
729.21	1.872
729.41	1.872
729.60	1.864
729.79	1.867
729.99	1.866
730.18	1.857
730.37	1.856
730.56	1.856
730.76	1.855
730.95	1.854
731.14	1.851
731.34	1.844
731.53	1.845
731.72	1.846
731.91	1.846
732.11	1.848
732.30	1.851
732.49	1.848
732.69	1.851
732.88	1.857
733.07	1.856
733.26	1.859
733.46	1.863
733.65	1.864
733.84	1.863
734.03	1.862
734.23	1.874
734.42	1.873
734.61	1.871
734.80	1.868
735.00	1.866
735.19	1.871
735.38	1.877
735.57	1.880
735.77	1.882
735.96	1.880
736.15	1.882
736.34	1.871
736.54	1.870
736.73	1.870
736.92	1.866
737.11	1.868
737.31	1.863
737.50	1.861
737.69	1.863
737.88	1.865
738.07	1.866
738.27	1.864
738.46	1.869
738.65	1.873
738.84	1.878
739.04	1.879
739.23	1.878
739.42	1.875
739.61	1.871
739.80	1.870
740.00	1.875
740.19	1.869
740.38	1.875
740.57	1.883
740.76	1.881
740.96	1.883
741.15	1.885
741.34	1.889
741.53	1.890
741.72	1.890
741.92	1.890
742.11	1.898
742.30	1.893
742.49	1.893
742.68	1.895
742.88	1.896
743.07	1.896
743.26	1.899
743.45	1.897
743.64	1.902
743.84	1.901
744.03	1.897
744.22	1.902
744.41	1.901
744.60	1.898
744.79	1.900
744.99	1.896
745.18	1.888
745.37	1.886
745.56	1.887
745.75	1.888
745.94	1.895
746.14	1.884
746.33	1.886
746.52	1.880
746.71	1.879
746.90	1.869
747.09	1.865
747.28	1.867
747.48	1.868
747.67	1.867
747.86	1.868
748.05	1.870
748.24	1.866
748.43	1.863
748.62	1.861
748.82	1.861
749.01	1.864
749.20	1.864
749.39	1.865
749.58	1.857
749.77	1.857
749.96	1.850
750.16	1.856
750.35	1.856
750.54	1.856
750.73	1.853
750.92	1.858
751.11	1.862
751.30	1.862
751.49	1.864
751.68	1.863
751.88	1.863
752.07	1.858
752.26	1.860
752.45	1.865
752.64	1.868
752.83	1.865
753.02	1.866
753.21	1.872
753.40	1.869
753.60	1.873
753.79	1.870
753.98	1.872
754.17	1.872
754.36	1.872
754.55	1.874
754.74	1.877
754.93	1.877
755.12	1.878
755.31	1.881
755.50	1.879
755.70	1.880
755.89	1.877
756.08	1.882
756.27	1.882
756.46	1.881
756.65	1.881
756.84	1.883
757.03	1.880
757.22	1.877
757.41	1.882
757.60	1.885
757.79	1.889
757.98	1.885
758.17	1.882
758.36	1.887
758.56	1.886
758.75	1.889
758.94	1.885
759.13	1.889
759.32	1.882
759.51	1.879
759.70	1.872
759.89	1.880
760.08	1.879
760.27	1.879
760.46	1.885
760.65	1.882
760.84	1.879
761.03	1.879
761.22	1.882
761.41	1.881
761.60	1.882
761.79	1.880
761.98	1.882
762.17	1.885
762.36	1.882
762.55	1.884
762.74	1.883
762.93	1.885
763.12	1.880
763.31	1.882
763.50	1.884
763.69	1.892
763.88	1.892
764.07	1.894
764.26	1.895
764.45	1.892
764.64	1.891
764.83	1.894
765.02	1.901
765.21	1.905
765.40	1.905
765.59	1.907
765.78	1.910
765.97	1.908
766.16	1.906
766.35	1.911
766.54	1.907
766.73	1.907
766.92	1.907
767.11	1.914
767.30	1.915
767.49	1.914
767.68	1.909
767.87	1.905
768.06	1.906
768.25	1.902
768.44	1.903
768.63	1.911
768.82	1.911
769.01	1.903
769.20	1.897
769.39	1.894
769.58	1.888
769.77	1.887
769.96	1.891
770.15	1.892
770.34	1.889
770.53	1.896
770.72	1.898
770.91	1.899
771.10	1.894
771.29	1.896
771.47	1.898
771.66	1.901
771.85	1.901
772.04	1.899
772.23	1.900
772.42	1.899
772.61	1.898
772.80	1.898
772.99	1.899
773.18	1.898
773.37	1.901
773.56	1.905
773.75	1.908
773.94	1.907
774.13	1.905
774.31	1.907
774.50	1.901
774.69	1.900
774.88	1.901
775.07	1.896
775.26	1.891
775.45	1.890
775.64	1.889
775.83	1.899
776.02	1.899
776.21	1.899
776.40	1.898
776.58	1.897
776.77	1.903
776.96	1.908
777.15	1.916
777.34	1.920
777.53	1.920
777.72	1.916
777.91	1.915
778.10	1.916
778.28	1.912
778.47	1.916
778.66	1.914
778.85	1.912
779.04	1.916
779.23	1.916
779.42	1.922
779.61	1.926
779.79	1.918
779.98	1.914
780.17	1.917
780.36	1.920
780.55	1.918
780.74	1.910
780.93	1.907
781.12	1.904
781.30	1.902
781.49	1.901
781.68	1.901
781.87	1.902
782.06	1.897
782.25	1.906
782.44	1.905
782.62	1.908
782.81	1.911
783.00	1.915
783.19	1.920
783.38	1.915
783.57	1.915
783.75	1.911
783.94	1.915
784.13	1.914
784.32	1.908
784.51	1.907
784.70	1.907
784.88	1.910
785.07	1.908
785.26	1.899
785.45	1.903
785.64	1.907
785.83	1.905
786.01	1.912
786.20	1.905
786.39	1.908
786.58	1.903
786.77	1.899
786.95	1.894
787.14	1.889
787.33	1.890
787.52	1.885
787.71	1.884
787.90	1.882
788.08	1.884
788.27	1.887
788.46	1.887
788.65	1.888
788.84	1.885
789.02	1.881
789.21	1.883
789.40	1.881
789.59	1.880
789.77	1.880
789.96	1.877
790.15	1.870
790.34	1.866
790.53	1.868
790.71	1.872
790.90	1.875
791.09	1.881
791.28	1.885
791.46	1.889
791.65	1.894
791.84	1.897
792.03	1.894
792.22	1.890
792.40	1.893
792.59	1.898
792.78	1.897
792.97	1.901
793.15	1.906
793.34	1.904
793.53	1.904
793.72	1.901
793.90	1.901
794.09	1.908
794.28	1.913
794.47	1.914
794.65	1.910
794.84	1.913
795.03	1.911
795.22	1.909
795.40	1.903
795.59	1.902
795.78	1.902
795.97	1.902
796.15	1.902
796.34	1.904
796.53	1.903
796.71	1.906
796.90	1.908
797.09	1.904
797.28	1.905
797.46	1.905
797.65	1.906
797.84	1.913
798.02	1.915
798.21	1.910
798.40	1.910
798.59	1.911
798.77	1.907
798.96	1.908
799.15	1.909
799.33	1.919
799.52	1.917
799.71	1.914
799.90	1.919
800.08	1.923
800.27	1.924
800.46	1.929
800.64	1.925
800.83	1.922
801.02	1.927
801.20	1.928
801.39	1.930
801.58	1.931
801.76	1.929
801.95	1.928
802.14	1.932
802.32	1.932
802.51	1.935
802.70	1.939
802.88	1.936
803.07	1.932
803.26	1.928
803.44	1.931
803.63	1.937
803.82	1.934
804.00	1.932
804.19	1.929
804.38	1.923
804.56	1.925
804.75	1.931
804.94	1.930
805.12	1.927
805.31	1.926
805.50	1.930
805.68	1.926
805.87	1.926
806.06	1.924
806.24	1.925
806.43	1.922
806.62	1.921
806.80	1.922
806.99	1.923
807.17	1.920
807.36	1.915
807.55	1.916
807.73	1.911
807.92	1.915
808.11	1.918
808.29	1.912
808.48	1.913
808.66	1.913
808.85	1.914
809.04	1.916
809.22	1.911
809.41	1.909
809.59	1.910
809.78	1.908
809.97	1.910
810.15	1.909
810.34	1.907
810.53	1.909
810.71	1.909
810.90	1.908
811.08	1.914
811.27	1.916
811.45	1.908
811.64	1.915
811.83	1.918
812.01	1.916
812.20	1.920
812.38	1.921
812.57	1.918
812.76	1.916
812.94	1.917
813.13	1.922
813.31	1.924
813.50	1.925
813.68	1.928
813.87	1.929
814.06	1.931
814.24	1.931
814.43	1.928
814.61	1.934
814.80	1.934
814.98	1.929
815.17	1.931
815.36	1.931
815.54	1.924
815.73	1.920
815.91	1.916
816.10	1.914
816.28	1.913
816.47	1.913
816.65	1.915
816.84	1.915
817.03	1.913
817.21	1.907
817.40	1.904
817.58	1.909
817.77	1.902
817.95	1.894
818.14	1.891
818.32	1.895
818.51	1.888
818.69	1.890
818.88	1.891
819.06	1.889
819.25	1.893
819.43	1.898
819.62	1.894
819.80	1.899
819.99	1.901
820.18	1.903
820.36	1.906
820.55	1.904
820.73	1.904
820.92	1.908
821.10	1.910
821.29	1.913
821.47	1.905
821.66	1.911
821.84	1.916
822.03	1.922
822.21	1.913
822.40	1.914
822.58	1.910
822.77	1.906
822.95	1.912
823.14	1.914
823.32	1.915
823.50	1.917
823.69	1.916
823.87	1.912
824.06	1.908
824.24	1.907
824.43	1.912
824.61	1.912
824.80	1.908
824.98	1.906
825.17	1.909
825.35	1.914
825.54	1.913
825.72	1.914
825.91	1.912
826.09	1.922
826.28	1.927
826.46	1.932
826.64	1.941
826.83	1.941
827.01	1.939
827.20	1.935
827.38	1.937
827.57	1.934
827.75	1.941
827.94	1.940
828.12	1.945
828.31	1.942
828.49	1.941
828.67	1.945
828.86	1.945
829.04	1.943
829.23	1.938
829.41	1.934
829.60	1.932
829.78	1.933
829.96	1.930
830.15	1.927
830.33	1.930
830.52	1.930
830.70	1.924
830.88	1.924
831.07	1.933
831.25	1.933
831.44	1.936
831.62	1.933
831.81	1.935
831.99	1.929
832.17	1.926
832.36	1.922
832.54	1.921
832.73	1.921
832.91	1.919
833.09	1.919
833.28	1.923
833.46	1.930
833.65	1.931
833.83	1.927
834.01	1.924
834.20	1.923
834.38	1.921
834.56	1.922
834.75	1.917
834.93	1.913
835.12	1.916
835.30	1.915
835.48	1.918
835.67	1.917
835.85	1.918
836.03	1.921
836.22	1.928
836.40	1.924
836.59	1.929
836.77	1.930
836.95	1.935
837.14	1.934
837.32	1.934
837.50	1.931
837.69	1.938
837.87	1.937
838.05	1.937
838.24	1.932
838.42	1.935
838.60	1.941
838.79	1.937
838.97	1.938
839.15	1.941
839.34	1.939
839.52	1.939
839.70	1.938
839.89	1.933
840.07	1.931
840.25	1.937
840.44	1.939
840.62	1.939
840.80	1.934
840.99	1.931
841.17	1.929
841.35	1.930
841.54	1.925
841.72	1.930
841.90	1.926
842.09	1.932
842.27	1.935
842.45	1.932
842.64	1.934
842.82	1.932
843.00	1.927
843.19	1.929
843.37	1.937
843.55	1.937
843.73	1.936
843.92	1.930
844.10	1.929
844.28	1.929
844.47	1.929
844.65	1.933
844.83	1.934
845.01	1.928
845.20	1.925
845.38	1.931
845.56	1.932
845.75	1.935
845.93	1.935
846.11	1.933
846.29	1.932
846.48	1.933
846.66	1.935
846.84	1.938
847.02	1.935
847.21	1.927
847.39	1.925
847.57	1.933
847.76	1.938
847.94	1.936
848.12	1.932
848.30	1.935
848.49	1.938
848.67	1.937
848.85	1.941
849.03	1.946
849.22	1.942
849.40	1.936
849.58	1.933
849.76	1.930
849.95	1.923
850.13	1.928
850.31	1.929
850.49	1.924
850.67	1.924
850.86	1.931
851.04	1.934
851.22	1.934
851.40	1.933
851.59	1.934
851.77	1.938
851.95	1.940
852.13	1.934
852.31	1.932
852.50	1.935
852.68	1.941
852.86	1.938
853.04	1.942
853.23	1.940
853.41	1.942
853.59	1.942
853.77	1.944
853.95	1.949
854.14	1.944
854.32	1.944
854.50	1.943
854.68	1.933
854.86	1.936
855.04	1.937
855.23	1.934
855.41	1.933
855.59	1.927
855.77	1.925
855.95	1.931
856.14	1.932
856.32	1.930
856.50	1.928
856.68	1.933
856.86	1.931
857.04	1.937
857.23	1.937
857.41	1.935
857.59	1.932
857.77	1.921
857.95	1.928
858.13	1.929
858.32	1.931
858.50	1.938
858.68	1.933
858.86	1.936
859.04	1.936
859.22	1.940
859.41	1.937
859.59	1.938
859.77	1.935
859.95	1.929
860.13	1.932
860.31	1.933
860.49	1.930
860.68	1.929
860.86	1.929
861.04	1.929
861.22	1.926
861.40	1.935
861.58	1.937
861.76	1.937
861.94	1.935
862.13	1.935
862.31	1.936
862.49	1.939
862.67	1.941
862.85	1.941
863.03	1.933
863.21	1.939
863.39	1.938
863.57	1.942
863.76	1.948
863.94	1.947
864.12	1.944
864.30	1.947
864.48	1.944
864.66	1.941
864.84	1.945
865.02	1.949
865.20	1.949
865.38	1.953
865.57	1.946
865.75	1.947
865.93	1.948
866.11	1.941
866.29	1.939
866.47	1.930
866.65	1.928
866.83	1.935
867.01	1.934
867.19	1.927
867.37	1.926
867.55	1.924
867.73	1.921
867.92	1.919
868.10	1.921
868.28	1.920
868.46	1.924
868.64	1.914
868.82	1.908
869.00	1.902
869.18	1.896
869.36	1.899
869.54	1.899
869.72	1.896
869.90	1.897
870.08	1.900
870.26	1.904
870.44	1.904
870.62	1.902
870.80	1.905
870.98	1.907
871.16	1.905
871.34	1.903
871.53	1.906
871.71	1.907
871.89	1.901
872.07	1.906
872.25	1.907
872.43	1.910
872.61	1.921
872.79	1.920
872.97	1.927
873.15	1.926
873.33	1.928
873.51	1.926
873.69	1.935
873.87	1.934
874.05	1.935
874.23	1.935
874.41	1.933
874.59	1.928
874.77	1.935
874.95	1.939
875.13	1.945
875.31	1.939
875.49	1.940
875.67	1.938
875.85	1.937
876.03	1.932
876.21	1.935
876.39	1.938
876.57	1.941
876.75	1.943
876.93	1.946
877.11	1.946
877.29	1.953
877.47	1.953
877.65	1.947
877.82	1.954
878.00	1.954
878.18	1.955
878.36	1.957
878.54	1.960
878.72	1.956
878.90	1.953
879.08	1.958
879.26	1.956
879.44	1.955
879.62	1.954
879.80	1.953
879.98	1.956
880.16	1.946
880.34	1.946
880.52	1.943
880.70	1.945
880.88	1.946
881.06	1.936
881.24	1.931
881.42	1.935
881.59	1.931
881.77	1.932
881.95	1.931
882.13	1.931
882.31	1.931
882.49	1.933
882.67	1.934
882.85	1.931
883.03	1.930
883.21	1.935
883.39	1.933
883.57	1.935
883.75	1.933
883.92	1.937
884.10	1.938
884.28	1.933
884.46	1.926
884.64	1.924
884.82	1.926
885.00	1.925
885.18	1.927
885.36	1.920
885.54	1.924
885.71	1.922
885.89	1.921
886.07	1.917
886.25	1.912
886.43	1.909
886.61	1.914
886.79	1.915
886.97	1.916
887.15	1.916
887.32	1.919
887.50	1.924
887.68	1.922
887.86	1.924
888.04	1.929
888.22	1.930
888.40	1.933
888.57	1.932
888.75	1.937
888.93	1.936
889.11	1.944
889.29	1.943
889.47	1.945
889.65	1.948
889.82	1.947
890.00	1.953
890.18	1.951
890.36	1.949
890.54	1.948
890.72	1.950
890.90	1.953
891.07	1.957
891.25	1.954
891.43	1.955
891.61	1.955
891.79	1.954
891.97	1.952
892.14	1.950
892.32	1.960
892.50	1.953
892.68	1.948
892.86	1.947
893.03	1.941
893.21	1.945
893.39	1.943
893.57	1.945
893.75	1.946
893.93	1.953
894.10	1.950
894.28	1.950
894.46	1.945
894.64	1.946
894.82	1.939
894.99	1.935
895.17	1.937
895.35	1.940
895.53	1.940
895.71	1.949
895.88	1.947
896.06	1.944
896.24	1.946
896.42	1.946
896.59	1.945
896.77	1.947
896.95	1.951
897.13	1.950
897.31	1.955
897.48	1.954
897.66	1.950
897.84	1.959
898.02	1.961
898.19	1.963
898.37	1.960
898.55	1.966
898.73	1.969
898.91	1.970
899.08	1.969
899.26	1.968
899.44	1.968
899.62	1.974
899.79	1.974
899.97	1.975
900.15	1.977
900.33	1.980
900.50	1.985
900.68	1.979
900.86	1.980
901.04	1.980
901.21	1.983
901.39	1.987
901.57	1.979
901.74	1.981
901.92	1.982
902.10	1.980
902.28	1.976
902.45	1.975
902.63	1.970
902.81	1.968
902.99	1.969
903.16	1.968
903.34	1.964
903.52	1.961
903.69	1.957
903.87	1.955
904.05	1.952
904.22	1.953
904.40	1.955
904.58	1.957
904.76	1.953
904.93	1.951
905.11	1.951
905.29	1.947
905.46	1.947
905.64	1.946
905.82	1.946
905.99	1.946
906.17	1.949
906.35	1.949
906.53	1.944
906.70	1.942
906.88	1.939
907.06	1.939
907.23	1.941
907.41	1.943
907.59	1.944
907.76	1.943
907.94	1.942
908.12	1.939
908.29	1.935
908.47	1.932
908.65	1.927
908.82	1.924
909.00	1.927
909.18	1.927
909.35	1.927
909.53	1.927
909.71	1.928
909.88	1.927
910.06	1.930
910.23	1.931
910.41	1.933
910.59	1.932
910.76	1.933
910.94	1.938
911.12	1.942
911.29	1.946
911.47	1.948
911.65	1.943
911.82	1.946
912.00	1.951
912.17	1.959
912.35	1.963
912.53	1.963
912.70	1.964
912.88	1.964
913.06	1.967
913.23	1.964
913.41	1.959
913.58	1.956
913.76	1.953
913.94	1.953
914.11	1.954
914.29	1.949
914.46	1.947
914.64	1.939
914.82	1.935
914.99	1.928
915.17	1.927
915.34	1.933
915.52	1.934
915.70	1.934
915.87	1.924
916.05	1.924
916.22	1.924
916.40	1.926
916.57	1.918
916.75	1.915
916.93	1.918
917.10	1.921
917.28	1.924
917.45	1.923
917.63	1.931
917.80	1.929
917.98	1.937
918.16	1.937
918.33	1.942
918.51	1.946
918.68	1.952
918.86	1.951
919.03	1.945
919.21	1.946
919.39	1.945
919.56	1.949
919.74	1.948
919.91	1.947
920.09	1.946
920.26	1.948
920.44	1.949
920.61	1.951
920.79	1.958
920.96	1.951
921.14	1.953
921.31	1.946
921.49	1.949
921.67	1.944
921.84	1.945
922.02	1.940
922.19	1.937
922.37	1.937
922.54	1.939
922.72	1.938
922.89	1.940
923.07	1.941
923.24	1.943
923.42	1.952
923.59	1.958
923.77	1.952
923.94	1.952
924.12	1.948
924.29	1.942
924.47	1.939
924.64	1.946
924.82	1.943
924.99	1.947
925.17	1.951
925.34	1.949
925.52	1.952
925.69	1.952
925.87	1.952
926.04	1.958
926.22	1.961
926.39	1.964
926.57	1.957
926.74	1.954
926.91	1.949
927.09	1.948
927.26	1.945
927.44	1.946
927.61	1.962
927.79	1.966
927.96	1.971
928.14	1.971
928.31	1.975
928.49	1.981
928.66	1.980
928.84	1.971
929.01	1.979
929.18	1.973
929.36	1.971
929.53	1.975
929.71	1.976
929.88	1.977
930.06	1.975
930.23	1.983
930.41	1.978
930.58	1.983
930.75	1.975
930.93	1.976
931.10	1.974
931.28	1.961
931.45	1.971
931.63	1.976
931.80	1.979
931.97	1.969
932.15	1.963
932.32	1.969
932.50	1.975
932.67	1.973
932.84	1.969
933.02	1.973
933.19	1.966
933.37	1.959
933.54	1.954
933.71	1.948
933.89	1.950
934.06	1.948
934.24	1.948
934.41	1.948
934.58	1.948
934.76	1.952
934.93	1.954
935.11	1.936
935.28	1.934
935.45	1.927
935.63	1.928
935.80	1.924
935.98	1.915
936.15	1.914
936.32	1.916
936.50	1.920
936.67	1.922
936.84	1.925
937.02	1.920
937.19	1.928
937.36	1.933
937.54	1.932
937.71	1.941
937.89	1.941
938.06	1.941
938.23	1.944
938.41	1.942
938.58	1.943
938.75	1.951
938.93	1.953
939.10	1.958
939.27	1.967
939.45	1.975
939.62	1.982
939.79	1.983
939.97	1.972
940.14	1.979
940.31	1.978
940.49	1.987
940.66	1.994
940.83	1.989
941.01	1.995
941.18	1.988
941.35	1.992
941.53	1.987
941.70	1.985
941.87	1.974
942.05	1.977
942.22	1.973
942.39	1.980
942.57	1.976
942.74	1.974
942.91	1.970
943.08	1.962
943.26	1.958
943.43	1.950
943.60	1.958
943.78	1.950
943.95	1.949
944.12	1.946
944.29	1.943
944.47	1.951
944.64	1.940
944.81	1.946
944.99	1.935
945.16	1.935
945.33	1.932
945.50	1.946
945.68	1.938
945.85	1.940
946.02	1.930
946.20	1.922
946.37	1.913
946.54	1.913
946.71	1.917
946.89	1.909
947.06	1.907
947.23	1.912
947.40	1.914
947.58	1.920
947.75	1.926
947.92	1.932
948.09	1.914
948.27	1.925
948.44	1.921
948.61	1.925
948.78	1.926
948.96	1.934
949.13	1.926
949.30	1.938
949.47	1.939
949.65	1.945
949.82	1.958
949.99	1.968
950.16	1.975
950.33	1.985
950.51	1.988
950.68	1.989
950.85	1.987
951.02	1.995
951.20	1.984
951.37	1.978
951.54	1.968
951.71	1.972
951.88	1.975
952.06	1.977
952.23	1.968
952.40	1.973
952.57	1.970
952.74	1.979
952.92	1.975
953.09	1.976
953.26	1.978
953.43	1.968
953.60	1.961
953.77	1.947
953.95	1.949
954.12	1.952
954.29	1.953
954.46	1.950
954.63	1.943
954.81	1.944
954.98	1.937
955.15	1.952
955.32	1.960
955.49	1.952
955.66	1.946
955.84	1.965
956.01	1.963
956.18	1.962
956.35	1.952
956.52	1.954
956.69	1.952
956.87	1.942
957.04	1.952
957.21	1.955
957.38	1.966
957.55	1.954
957.72	1.951
957.89	1.968
958.07	1.963
958.24	1.971
958.41	1.965
958.58	1.963
958.75	1.948
958.92	1.941
959.09	1.956
959.26	1.959
959.44	1.947
959.61	1.937
959.78	1.934
959.95	1.935
960.12	1.937
960.29	1.935
960.46	1.943
960.63	1.939
960.81	1.950
960.98	1.950
961.15	1.945
961.32	1.943
961.49	1.930
961.66	1.936
961.83	1.922
962.00	1.916
962.17	1.916
962.34	1.919
962.52	1.924
962.69	1.904
962.86	1.910
963.03	1.908
963.20	1.918
963.37	1.922
963.54	1.905
963.71	1.901
963.88	1.911
964.05	1.917
964.22	1.910
964.39	1.902
964.56	1.894
964.74	1.906
964.91	1.923
965.08	1.935
965.25	1.929
965.42	1.930
965.59	1.949
965.76	1.950
965.93	1.955
966.10	1.961
966.27	1.959
966.44	1.947
966.61	1.953
966.78	1.951
966.95	1.955
967.12	1.980
967.29	1.987
967.46	1.973
967.63	1.964
967.80	1.967
967.97	1.978
968.14	1.997
968.32	1.971
968.49	1.965
968.66	1.952
968.83	1.959
969.00	1.968
969.17	1.972
969.34	1.968
969.51	1.969
969.68	1.960
969.85	1.969
970.02	1.983
970.19	1.986
970.36	1.988
970.53	1.991
970.70	1.967
970.87	1.976
971.04	1.987
971.21	1.978
971.38	1.986
971.55	1.975
971.72	1.962
971.89	1.984
972.06	1.989
972.23	1.991
972.40	2.007
972.57	2.003
972.74	1.994
972.91	1.992
973.07	1.974
973.24	1.975
973.41	1.969
973.58	1.970
973.75	1.972
973.92	1.986
974.09	1.999
974.26	2.017
974.43	2.003
974.60	2.007
974.77	2.032
974.94	2.029
975.11	2.039
975.28	2.047
975.45	2.041
975.62	2.051
975.79	2.050
975.96	2.024
976.13	2.032
976.30	2.003
976.47	2.019
976.64	2.020
976.80	2.027
976.97	2.034
977.14	2.023
977.31	2.019
977.48	2.005
977.65	1.986
977.82	1.999
977.99	1.990
978.16	1.983
978.33	1.979
978.50	1.964
978.67	1.951
978.83	1.953
979.00	1.947
979.17	1.931
979.34	1.930
979.51	1.945
979.68	1.940
979.85	1.968
980.02	1.984
980.19	1.995
980.36	1.993
980.52	2.006
980.69	2.005
980.86	2.012
981.03	2.029
981.20	2.029
981.37	2.024
981.54	2.020
981.71	2.006
981.88	2.007
982.04	2.032
982.21	2.032
982.38	2.018
982.55	2.024
982.72	2.035
982.89	2.039
983.06	2.024
983.22	2.033
983.39	2.018
983.56	2.003
983.73	1.984
983.90	1.975
984.07	1.950
984.24	1.975
984.40	1.971
984.57	1.958
984.74	1.956
984.91	1.955
985.08	1.941
985.25	1.955
985.41	1.947
985.58	1.948
985.75	1.947
985.92	1.944
986.09	1.952
986.26	1.951
986.42	1.951
986.59	1.938
986.76	1.929
986.93	1.937
987.10	1.939
987.27	1.942
987.43	1.953
987.60	1.966
987.77	1.939
987.94	1.955
988.11	1.940
988.27	1.936
988.44	1.947
988.61	1.991
988.78	2.002
988.95	1.995
989.11	1.975
989.28	1.990
989.45	2.016
989.62	2.018
989.79	2.003
989.95	1.995
990.12	2.001
990.29	1.989
990.46	1.989
990.62	1.996
990.79	2.001
990.96	1.987
991.13	1.988
991.30	2.002
991.46	2.005
991.63	2.010
991.80	1.990
991.97	1.954
992.13	1.931
992.30	1.909
992.47	1.916
992.64	1.944
992.80	1.935
992.97	1.916
993.14	1.904
993.31	1.900
993.47	1.929
993.64	1.942
993.81	1.972
993.98	1.974
994.14	1.951
994.31	1.964
994.48	1.962
994.64	1.951
994.81	1.943
994.98	1.915
995.15	1.924
995.31	1.940
995.48	1.966
995.65	1.965
995.82	1.971
995.98	1.990
996.15	1.981
996.32	1.968
996.48	1.955
996.65	1.968
996.82	1.981
996.99	1.949
997.15	1.954
997.32	1.938
997.49	1.956
997.65	1.983
997.82	1.982
997.99	2.013
998.15	2.023
998.32	2.046
998.49	2.033
998.65	2.027
998.82	2.031
998.99	2.025
999.15	2.031
999.32	2.008
999.49	1.970
999.65	1.943
999.82	1.990
999.99	2.001
1000.15	1.995
1000.32	2.011
1000.49	2.015
1000.65	2.012
1000.82	1.996
1000.99	1.968
1001.15	1.941
1001.32	1.927
1001.49	1.915
1001.65	1.885
1001.82	1.870
1001.99	1.887
1002.15	1.881
1002.32	1.888
1002.49	1.884
1002.65	1.866
1002.82	1.894
1002.99	1.923
1003.15	1.957
1003.32	1.934
1003.48	1.933
1003.65	1.932
1003.82	1.925
1003.98	1.924
1004.15	1.937
1004.32	1.943
1004.48	1.955
1004.65	1.990
1004.81	1.997
1004.98	1.992
1005.15	2.042
1005.31	2.065
1005.48	2.047
1005.64	2.061
1005.81	2.059
1005.98	2.072
1006.14	2.087
1006.31	2.105
1006.47	2.054
1006.64	2.022
1006.81	2.044
1006.97	2.063
1007.14	2.050
1007.30	2.061
1007.47	2.103
1007.63	2.038
1007.80	2.065
1007.97	2.075
1008.13	2.032
1008.30	2.017
1008.46	1.995
1008.63	1.974
1008.79	1.927
1008.96	1.954
1009.13	1.973
1009.29	1.984
1009.46	1.972
1009.62	1.978
1009.79	1.936
1009.95	1.988
1010.12	1.984
1010.28	1.953
1010.45	1.932
1010.62	1.936
1010.78	1.897
1010.95	1.894
1011.11	1.920
1011.28	1.900
1011.44	1.891
1011.61	1.915
1011.77	1.935
1011.94	1.961
1012.10	1.983
1012.27	2.048
1012.43	2.030
1012.60	1.999
1012.76	1.985
1012.93	2.033
1013.10	2.020
1013.26	2.070
1013.43	2.017
1013.59	2.006
1013.76	1.987
1013.92	2.007
1014.09	2.020
1014.25	2.022
1014.42	2.005
1014.58	2.015
1014.75	2.024
1014.91	2.054
1015.08	2.076
1015.24	2.048
1015.41	2.013
1015.57	2.002
1015.73	1.983
1015.90	1.989
1016.06	2.016
1016.23	2.020
1016.39	1.997
1016.56	1.991
1016.72	1.958
1016.89	1.965
1017.05	1.972
1017.22	1.986
1017.38	1.997
1017.55	1.983
1017.71	1.965
1017.88	1.979
1018.04	1.971
1018.21	1.951
1018.37	1.897
1018.53	1.880
1018.70	1.901
1018.86	1.910
1019.03	1.885
1019.19	1.887
1019.36	1.912
1019.52	1.932
1019.69	1.939
1019.85	1.901
1020.01	1.929
1020.18	1.931
1020.34	1.926
1020.51	1.954
1020.67	1.978
1020.84	1.953
1021.00	1.927
1021.16	1.936
1021.33	1.886
1021.49	1.892
1021.66	1.894
1021.82	1.924
1021.98	1.913
1022.15	1.964
1022.31	1.926
1022.48	1.955
1022.64	1.958
1022.80	1.886
1022.97	1.817
1023.13	1.808
1023.30	1.820
1023.46	1.800
1023.62	1.828
1023.79	1.850
1023.95	1.838
1024.12	1.847
1024.28	1.875
1024.44	1.891
1024.61	1.925
1024.77	1.985
1024.93	1.951
1025.10	1.997
1025.26	1.974
1025.43	2.010
1025.59	1.980
1025.75	2.037
1025.92	2.019
1026.08	2.030
1026.24	2.025
1026.41	2.039
1026.57	2.023
1026.73	2.003
1026.90	2.056
1027.06	1.970
1027.23	1.928
1027.39	1.922
1027.55	1.884
1027.72	1.892
1027.88	1.932
1028.04	1.923
1028.21	1.853
1028.37	1.897
1028.53	1.884
1028.70	1.903
1028.86	1.892
1029.02	1.890
1029.19	1.868
1029.35	1.886
1029.51	1.875
1029.67	1.905
1029.84	1.954
1030.00	1.982
1030.16	2.036
1030.33	1.977
1030.49	2.023
1030.65	2.083
1030.82	2.103
1030.98	2.143
1031.14	2.059
1031.31	1.998
1031.47	2.061
1031.63	2.210
1031.79	2.215
1031.96	2.189
1032.12	2.170
1032.28	2.172
1032.45	2.104
1032.61	2.210
1032.77	2.175
1032.93	2.120
1033.10	2.131
1033.26	2.143
1033.42	2.120
1033.58	2.085
1033.75	2.087
1033.91	2.107
1034.07	2.128
1034.24	2.134
1034.40	2.076
1034.56	2.086
1034.72	2.171
1034.89	2.023
1035.05	1.953
1035.21	1.926
1035.37	1.941
1035.54	1.911
1035.70	1.877
1035.86	1.903
1036.02	1.858
1036.19	1.848
1036.35	1.862
1036.51	1.877
1036.67	1.865
1036.83	1.833
1037.00	1.796
1037.16	1.775
1037.32	1.783
1037.48	1.791
1037.65	1.813
1037.81	1.801
1037.97	1.787
1038.13	1.758
1038.29	1.800
1038.46	1.814
1038.62	1.802
1038.78	1.835
1038.94	1.833
1039.10	1.812
1039.27	1.810
1039.43	1.805
1039.59	1.822
1039.75	1.827
1039.91	1.786
1040.08	1.767
1040.24	1.841
1040.40	1.979
1040.56	2.005
1040.72	1.977
1040.89	1.927
1041.05	1.894
1041.21	1.929
1041.37	1.916
1041.53	1.963
1041.69	2.015
1041.86	2.043
1042.02	2.054
1042.18	1.944
1042.34	2.019
1042.50	2.146
1042.66	2.188
1042.83	2.334
1042.99	2.423
1043.15	2.471
1043.31	2.613
1043.47	2.763
1043.63	2.382
1043.79	2.092
1043.96	2.159
1044.12	2.087
1044.28	2.210
1044.44	2.148
1044.60	2.138
1044.76	2.127
1044.92	2.128
1045.09	2.115
1045.25	2.036
1045.41	1.512
1045.57	1.843
1045.73	1.367
1045.89	-0.000
1046.05	1.848
1046.21	1.843
1046.38	1.280
1046.54	-0.000
1046.70	-0.000
1046.86	1.594
>>>>>End Processed Spectral Data<<<<<
