SpectraSuite Data File
++++++++++++++++++++++++++++++++++++
Date: Mon May 06 14:15:05 CDT 2013
User: Students
Dark Spectrum Present: Yes
Reference Spectrum Present: Yes
Number of Sampled Component Spectra: 1
Spectrometers: USB4H00887
Integration Time (usec): 25000 (USB4H00887)
Spectra Averaged: 10 (USB4H00887)
Boxcar Smoothing: 10 (USB4H00887)
Correct for Electrical Dark: No (USB4H00887)
Strobe/Lamp Enabled: No (USB4H00887)
Correct for Detector Non-linearity: No (USB4H00887)
Correct for Stray Light: No (USB4H00887)
Number of Pixels in Processed Spectrum: 3648
>>>>>Begin Processed Spectral Data<<<<<
345.83	-0.315
346.05	-0.315
346.26	-0.315
346.48	-0.000
346.70	-0.379
346.92	-0.000
347.14	0.481
347.35	1.258
347.57	-0.488
347.79	0.025
348.01	0.191
348.23	0.418
348.44	0.723
348.66	1.459
348.88	0.638
349.10	0.963
349.32	0.725
349.53	0.508
349.75	0.441
349.97	0.553
350.19	0.860
350.41	-0.000
350.62	1.514
350.84	-0.000
351.06	-0.000
351.28	-0.000
351.50	-0.000
351.71	-0.000
351.93	-0.000
352.15	-0.000
352.37	-0.000
352.58	-0.000
352.80	-0.000
353.02	-0.000
353.24	-0.000
353.46	-0.000
353.67	-0.000
353.89	-0.000
354.11	-0.000
354.33	-0.000
354.54	-0.000
354.76	-0.000
354.98	-0.000
355.20	-0.000
355.41	-0.000
355.63	-0.000
355.85	-0.000
356.07	-0.000
356.28	-0.000
356.50	-0.000
356.72	-0.000
356.94	-0.000
357.15	-0.000
357.37	1.897
357.59	-0.000
357.81	1.029
358.02	1.365
358.24	1.137
358.46	1.746
358.68	1.313
358.89	0.903
359.11	1.167
359.33	1.255
359.55	0.858
359.76	1.218
359.98	2.076
360.20	-0.000
360.42	-0.000
360.63	-0.000
360.85	2.045
361.07	-0.000
361.29	3.048
361.50	-0.000
361.72	-0.000
361.94	-0.000
362.15	-0.000
362.37	-0.000
362.59	-0.000
362.81	-0.000
363.02	-0.000
363.24	-0.000
363.46	-0.000
363.68	-0.000
363.89	-0.000
364.11	-0.000
364.33	-0.000
364.54	-0.000
364.76	-0.000
364.98	-0.000
365.20	-0.000
365.41	-0.000
365.63	-0.000
365.85	-0.000
366.06	-0.000
366.28	-0.000
366.50	-0.000
366.71	-0.000
366.93	-0.000
367.15	-0.000
367.37	2.858
367.58	0.895
367.80	1.267
368.02	1.569
368.23	-0.000
368.45	-0.000
368.67	-0.000
368.88	-0.000
369.10	-0.000
369.32	-0.000
369.53	-0.000
369.75	-0.000
369.97	-0.000
370.19	-0.000
370.40	-0.000
370.62	-0.000
370.84	-0.000
371.05	-0.000
371.27	1.488
371.49	1.213
371.70	1.066
371.92	0.976
372.14	1.245
372.35	1.000
372.57	1.224
372.79	1.056
373.00	1.064
373.22	1.104
373.44	0.910
373.65	1.167
373.87	2.618
374.09	1.240
374.30	0.874
374.52	0.964
374.74	1.084
374.95	1.107
375.17	1.262
375.39	1.097
375.60	1.304
375.82	1.640
376.04	2.366
376.25	-0.000
376.47	-0.000
376.68	-0.000
376.90	-0.000
377.12	-0.000
377.33	-0.000
377.55	-0.000
377.77	-0.000
377.98	-0.000
378.20	-0.000
378.42	-0.000
378.63	-0.000
378.85	-0.000
379.07	-0.000
379.28	-0.000
379.50	-0.000
379.71	-0.000
379.93	-0.000
380.15	-0.000
380.36	-0.000
380.58	-0.000
380.80	-0.000
381.01	-0.000
381.23	-0.000
381.44	-0.000
381.66	-0.000
381.88	-0.000
382.09	-0.000
382.31	-0.000
382.53	-0.000
382.74	-0.000
382.96	-0.000
383.17	-0.000
383.39	-0.000
383.61	-0.000
383.82	-0.000
384.04	-0.000
384.25	-0.000
384.47	-0.000
384.69	-0.000
384.90	-0.000
385.12	-0.000
385.33	-0.000
385.55	-0.000
385.77	-0.000
385.98	-0.000
386.20	-0.000
386.41	-0.000
386.63	-0.000
386.85	-0.000
387.06	-0.000
387.28	-0.000
387.49	-0.000
387.71	-0.000
387.93	-0.000
388.14	-0.000
388.36	-0.000
388.57	-0.000
388.79	2.662
389.01	1.682
389.22	1.546
389.44	1.884
389.65	1.548
389.87	1.348
390.08	1.208
390.30	1.354
390.52	1.575
390.73	2.240
390.95	2.207
391.16	1.766
391.38	2.015
391.59	-0.000
391.81	-0.000
392.03	-0.000
392.24	-0.000
392.46	-0.000
392.67	-0.000
392.89	-0.000
393.10	-0.000
393.32	-0.000
393.53	-0.000
393.75	-0.000
393.97	-0.000
394.18	-0.000
394.40	-0.000
394.61	-0.000
394.83	-0.000
395.04	-0.000
395.26	-0.000
395.47	-0.000
395.69	-0.000
395.91	-0.000
396.12	-0.000
396.34	-0.000
396.55	-0.000
396.77	-0.000
396.98	-0.000
397.20	-0.000
397.41	-0.000
397.63	-0.000
397.84	-0.000
398.06	-0.000
398.27	2.904
398.49	1.864
398.71	-0.000
398.92	-0.000
399.14	-0.000
399.35	-0.000
399.57	-0.000
399.78	-0.000
400.00	-0.000
400.21	2.087
400.43	1.489
400.64	1.416
400.86	1.263
401.07	1.383
401.29	1.543
401.50	1.947
401.72	2.923
401.93	-0.000
402.15	-0.000
402.36	-0.000
402.58	-0.000
402.79	-0.000
403.01	-0.000
403.22	-0.000
403.44	-0.000
403.65	-0.000
403.87	-0.000
404.08	-0.000
404.30	-0.000
404.51	-0.000
404.73	-0.000
404.94	-0.000
405.16	-0.000
405.37	-0.000
405.59	-0.000
405.80	-0.000
406.02	-0.000
406.23	-0.000
406.45	-0.000
406.66	-0.000
406.88	-0.000
407.09	-0.000
407.31	-0.000
407.52	-0.000
407.74	-0.000
407.95	-0.000
408.17	-0.000
408.38	-0.000
408.60	-0.000
408.81	-0.000
409.03	-0.000
409.24	-0.000
409.45	-0.000
409.67	-0.000
409.88	-0.000
410.10	-0.000
410.31	-0.000
410.53	-0.000
410.74	2.182
410.96	-0.000
411.17	-0.000
411.39	-0.000
411.60	-0.000
411.82	-0.000
412.03	-0.000
412.24	-0.000
412.46	-0.000
412.67	-0.000
412.89	-0.000
413.10	-0.000
413.32	-0.000
413.53	-0.000
413.75	2.554
413.96	-0.000
414.17	2.484
414.39	1.854
414.60	1.851
414.82	2.027
415.03	1.715
415.25	-0.000
415.46	2.187
415.68	1.726
415.89	1.722
416.10	1.793
416.32	1.754
416.53	1.639
416.75	1.829
416.96	1.813
417.18	1.990
417.39	2.236
417.60	-0.000
417.82	3.525
418.03	-0.000
418.25	-0.000
418.46	3.826
418.67	-0.000
418.89	-0.000
419.10	-0.000
419.32	-0.000
419.53	-0.000
419.75	-0.000
419.96	-0.000
420.17	-0.000
420.39	-0.000
420.60	-0.000
420.82	-0.000
421.03	-0.000
421.24	-0.000
421.46	-0.000
421.67	-0.000
421.89	-0.000
422.10	-0.000
422.31	-0.000
422.53	-0.000
422.74	-0.000
422.96	-0.000
423.17	-0.000
423.38	-0.000
423.60	-0.000
423.81	-0.000
424.03	2.016
424.24	2.118
424.45	-0.000
424.67	2.808
424.88	2.262
425.09	3.460
425.31	2.351
425.52	1.894
425.74	2.474
425.95	3.542
426.16	-0.000
426.38	-0.000
426.59	-0.000
426.80	-0.000
427.02	2.550
427.23	-0.000
427.45	-0.000
427.66	-0.000
427.87	-0.000
428.09	-0.000
428.30	-0.000
428.51	-0.000
428.73	-0.000
428.94	-0.000
429.15	-0.000
429.37	-0.000
429.58	-0.000
429.79	-0.000
430.01	-0.000
430.22	-0.000
430.44	2.802
430.65	2.152
430.86	2.308
431.08	2.187
431.29	3.843
431.50	-0.000
431.72	-0.000
431.93	2.902
432.14	3.222
432.36	-0.000
432.57	-0.000
432.78	-0.000
433.00	2.850
433.21	2.242
433.42	2.186
433.64	2.010
433.85	1.939
434.06	2.039
434.28	2.878
434.49	-0.000
434.70	-0.000
434.92	-0.000
435.13	-0.000
435.34	-0.000
435.56	2.552
435.77	2.216
435.98	2.575
436.20	2.200
436.41	2.629
436.62	1.952
436.83	1.961
437.05	1.943
437.26	1.855
437.47	1.879
437.69	1.792
437.90	1.746
438.11	1.869
438.33	1.839
438.54	1.702
438.75	1.679
438.97	1.618
439.18	1.573
439.39	1.677
439.60	1.640
439.82	1.615
440.03	1.611
440.24	1.641
440.46	1.606
440.67	1.618
440.88	1.524
441.10	1.632
441.31	1.619
441.52	1.639
441.73	1.666
441.95	1.635
442.16	1.782
442.37	1.997
442.58	1.804
442.80	1.821
443.01	1.937
443.22	1.939
443.44	1.929
443.65	2.010
443.86	1.928
444.07	1.826
444.29	1.842
444.50	2.082
444.71	2.049
444.92	2.057
445.14	2.010
445.35	2.296
445.56	2.062
445.78	2.131
445.99	2.171
446.20	2.191
446.41	2.221
446.63	2.100
446.84	1.913
447.05	1.919
447.26	1.915
447.48	1.964
447.69	1.933
447.90	1.820
448.11	1.766
448.33	1.801
448.54	1.795
448.75	1.782
448.96	1.670
449.18	1.675
449.39	1.724
449.60	1.690
449.81	1.649
450.03	1.704
450.24	1.658
450.45	1.695
450.66	1.677
450.87	1.638
451.09	1.727
451.30	1.756
451.51	1.822
451.72	1.794
451.94	1.732
452.15	1.724
452.36	1.781
452.57	1.879
452.78	1.859
453.00	2.022
453.21	2.258
453.42	2.414
453.63	2.197
453.85	2.129
454.06	2.225
454.27	2.177
454.48	2.383
454.69	2.311
454.91	2.195
455.12	2.423
455.33	-0.000
455.54	2.379
455.75	2.081
455.97	2.144
456.18	2.106
456.39	2.042
456.60	2.096
456.81	2.215
457.03	1.954
457.24	1.895
457.45	1.905
457.66	1.845
457.87	1.851
458.09	1.896
458.30	1.910
458.51	1.943
458.72	1.995
458.93	1.832
459.15	1.960
459.36	1.963
459.57	1.818
459.78	1.752
459.99	1.809
460.20	1.857
460.42	1.801
460.63	1.846
460.84	1.939
461.05	1.861
461.26	1.820
461.47	1.933
461.69	2.007
461.90	1.885
462.11	1.895
462.32	1.840
462.53	1.846
462.74	1.797
462.96	1.751
463.17	1.774
463.38	1.814
463.59	1.690
463.80	1.656
464.01	1.727
464.23	1.758
464.44	1.726
464.65	1.714
464.86	1.708
465.07	1.742
465.28	1.753
465.49	1.846
465.71	1.840
465.92	1.785
466.13	1.793
466.34	1.800
466.55	1.799
466.76	1.860
466.97	1.881
467.19	1.897
467.40	1.895
467.61	1.848
467.82	1.807
468.03	1.906
468.24	1.934
468.45	1.843
468.66	1.850
468.88	1.896
469.09	1.917
469.30	1.879
469.51	1.846
469.72	1.847
469.93	1.805
470.14	1.811
470.35	1.856
470.57	1.879
470.78	1.924
470.99	1.951
471.20	1.871
471.41	1.860
471.62	1.933
471.83	1.907
472.04	1.873
472.25	1.926
472.47	1.907
472.68	1.920
472.89	1.915
473.10	1.863
473.31	1.839
473.52	1.879
473.73	1.957
473.94	1.903
474.15	1.844
474.36	1.814
474.57	1.811
474.79	1.815
475.00	1.763
475.21	1.724
475.42	1.708
475.63	1.759
475.84	1.785
476.05	1.735
476.26	1.762
476.47	1.807
476.68	1.831
476.89	1.823
477.10	1.838
477.32	1.874
477.53	1.909
477.74	1.917
477.95	1.864
478.16	1.836
478.37	1.874
478.58	1.874
478.79	1.922
479.00	1.913
479.21	1.908
479.42	1.874
479.63	1.892
479.84	1.869
480.05	1.820
480.26	1.807
480.47	1.792
480.69	1.776
480.90	1.780
481.11	1.761
481.32	1.775
481.53	1.753
481.74	1.756
481.95	1.746
482.16	1.738
482.37	1.739
482.58	1.727
482.79	1.740
483.00	1.758
483.21	1.726
483.42	1.722
483.63	1.724
483.84	1.771
484.05	1.775
484.26	1.819
484.47	1.858
484.68	1.854
484.89	1.868
485.10	1.858
485.31	1.858
485.52	1.834
485.73	1.788
485.94	1.831
486.15	1.803
486.37	1.806
486.58	1.820
486.79	1.815
487.00	1.828
487.21	1.817
487.42	1.798
487.63	1.798
487.84	1.797
488.05	1.800
488.26	1.786
488.47	1.791
488.68	1.780
488.89	1.763
489.10	1.753
489.31	1.763
489.52	1.778
489.73	1.789
489.94	1.808
490.15	1.838
490.36	1.797
490.57	1.792
490.78	1.804
490.99	1.798
491.20	1.800
491.41	1.804
491.62	1.794
491.83	1.820
492.04	1.844
492.25	1.860
492.45	1.864
492.66	1.848
492.87	1.818
493.08	1.811
493.29	1.818
493.50	1.812
493.71	1.806
493.92	1.808
494.13	1.782
494.34	1.779
494.55	1.782
494.76	1.794
494.97	1.827
495.18	1.823
495.39	1.806
495.60	1.819
495.81	1.801
496.02	1.808
496.23	1.806
496.44	1.802
496.65	1.781
496.86	1.777
497.07	1.795
497.28	1.819
497.49	1.808
497.70	1.817
497.91	1.818
498.12	1.828
498.32	1.822
498.53	1.853
498.74	1.868
498.95	1.869
499.16	1.877
499.37	1.843
499.58	1.839
499.79	1.851
500.00	1.860
500.21	1.878
500.42	1.870
500.63	1.864
500.84	1.846
501.05	1.859
501.26	1.864
501.46	1.879
501.67	1.870
501.88	1.896
502.09	1.860
502.30	1.864
502.51	1.877
502.72	1.903
502.93	1.890
503.14	1.877
503.35	1.878
503.56	1.881
503.77	1.909
503.97	1.906
504.18	1.925
504.39	1.924
504.60	1.941
504.81	1.942
505.02	1.944
505.23	1.965
505.44	1.967
505.65	1.972
505.86	1.958
506.07	1.984
506.27	1.995
506.48	2.019
506.69	2.024
506.90	2.003
507.11	2.030
507.32	2.047
507.53	2.074
507.74	2.062
507.95	2.057
508.15	2.074
508.36	2.060
508.57	2.048
508.78	2.043
508.99	2.053
509.20	2.048
509.41	2.017
509.62	2.028
509.82	2.030
510.03	2.003
510.24	2.005
510.45	1.997
510.66	1.974
510.87	1.980
511.08	1.983
511.29	2.003
511.49	1.967
511.70	1.958
511.91	1.945
512.12	1.947
512.33	1.949
512.54	1.938
512.75	1.944
512.95	1.932
513.16	1.933
513.37	1.932
513.58	1.933
513.79	1.977
514.00	1.966
514.20	1.970
514.41	1.986
514.62	2.000
514.83	1.987
515.04	1.984
515.25	1.981
515.46	1.977
515.66	1.952
515.87	1.951
516.08	1.928
516.29	1.925
516.50	1.938
516.71	1.937
516.91	1.933
517.12	1.946
517.33	1.966
517.54	1.983
517.75	1.974
517.95	2.001
518.16	1.993
518.37	1.997
518.58	2.013
518.79	2.040
519.00	2.029
519.20	2.046
519.41	2.067
519.62	2.086
519.83	2.112
520.04	2.120
520.24	2.116
520.45	2.146
520.66	2.175
520.87	2.177
521.08	2.214
521.28	2.223
521.49	2.212
521.70	2.230
521.91	2.186
522.12	2.189
522.32	2.198
522.53	2.202
522.74	2.201
522.95	2.172
523.16	2.145
523.36	2.127
523.57	2.105
523.78	2.098
523.99	2.108
524.20	2.096
524.40	2.123
524.61	2.127
524.82	2.114
525.03	2.112
525.23	2.123
525.44	2.111
525.65	2.134
525.86	2.164
526.06	2.170
526.27	2.192
526.48	2.181
526.69	2.181
526.90	2.160
527.10	2.150
527.31	2.151
527.52	2.162
527.73	2.170
527.93	2.192
528.14	2.170
528.35	2.163
528.56	2.140
528.76	2.140
528.97	2.155
529.18	2.150
529.39	2.130
529.59	2.117
529.80	2.087
530.01	2.083
530.22	2.059
530.42	2.031
530.63	2.027
530.84	2.021
531.05	2.002
531.25	2.011
531.46	2.021
531.67	2.016
531.88	1.995
532.08	2.002
532.29	1.992
532.50	1.994
532.70	1.985
532.91	2.001
533.12	1.990
533.33	1.984
533.53	1.978
533.74	1.982
533.95	1.994
534.15	1.989
534.36	1.964
534.57	1.979
534.78	1.989
534.98	1.986
535.19	1.977
535.40	1.976
535.60	1.956
535.81	1.949
536.02	1.959
536.23	1.982
536.43	1.982
536.64	1.989
536.85	2.000
537.05	1.997
537.26	1.989
537.47	1.989
537.67	1.991
537.88	2.014
538.09	2.009
538.30	2.002
538.50	2.009
538.71	2.034
538.92	2.018
539.12	2.007
539.33	2.002
539.54	2.013
539.74	2.019
539.95	2.036
540.16	2.038
540.36	2.047
540.57	2.030
540.78	2.013
540.98	2.006
541.19	2.015
541.40	2.021
541.60	2.022
541.81	2.027
542.02	2.019
542.22	2.004
542.43	2.005
542.64	2.008
542.84	2.010
543.05	1.998
543.26	2.016
543.46	2.025
543.67	2.046
543.88	2.052
544.08	2.043
544.29	2.036
544.50	2.042
544.70	2.020
544.91	2.022
545.12	2.032
545.32	2.041
545.53	2.031
545.74	2.013
545.94	2.026
546.15	2.016
546.35	2.014
546.56	2.002
546.77	2.017
546.97	2.003
547.18	2.012
547.39	2.021
547.59	2.015
547.80	2.011
548.01	1.992
548.21	1.986
548.42	1.974
548.62	1.998
548.83	1.988
549.04	2.016
549.24	2.023
549.45	2.037
549.65	2.029
549.86	2.026
550.07	2.035
550.27	2.022
550.48	2.017
550.69	2.022
550.89	2.043
551.10	2.026
551.30	2.030
551.51	2.033
551.72	2.032
551.92	2.028
552.13	2.034
552.33	2.051
552.54	2.058
552.75	2.069
552.95	2.038
553.16	2.041
553.36	2.024
553.57	2.005
553.78	2.004
553.98	2.011
554.19	2.010
554.39	2.013
554.60	2.019
554.80	2.021
555.01	2.022
555.22	2.015
555.42	2.020
555.63	2.015
555.83	2.022
556.04	2.036
556.25	2.032
556.45	2.034
556.66	2.025
556.86	2.027
557.07	2.032
557.27	2.045
557.48	2.040
557.68	2.038
557.89	2.047
558.10	2.042
558.30	2.030
558.51	2.026
558.71	2.023
558.92	2.022
559.12	2.033
559.33	2.035
559.54	2.027
559.74	2.024
559.95	2.020
560.15	2.003
560.36	1.974
560.56	1.968
560.77	1.963
560.97	1.950
561.18	1.947
561.38	1.939
561.59	1.940
561.79	1.947
562.00	1.938
562.21	1.938
562.41	1.944
562.62	1.939
562.82	1.940
563.03	1.939
563.23	1.926
563.44	1.918
563.64	1.923
563.85	1.931
564.05	1.927
564.26	1.934
564.46	1.942
564.67	1.957
564.87	1.959
565.08	1.972
565.28	1.978
565.49	1.974
565.69	1.984
565.90	1.981
566.10	1.975
566.31	1.993
566.51	1.986
566.72	1.969
566.92	1.973
567.13	1.967
567.33	1.970
567.54	1.992
567.74	2.003
567.95	1.996
568.15	1.990
568.36	1.998
568.56	1.996
568.77	1.992
568.97	1.976
569.18	1.975
569.38	1.964
569.59	1.974
569.79	1.966
570.00	1.971
570.20	1.970
570.41	1.976
570.61	1.966
570.82	1.969
571.02	1.984
571.23	1.991
571.43	2.012
571.64	2.020
571.84	2.004
572.05	2.005
572.25	2.002
572.45	2.005
572.66	1.994
572.86	1.998
573.07	1.998
573.27	2.001
573.48	1.992
573.68	1.999
573.89	1.979
574.09	1.983
574.30	1.968
574.50	1.964
574.70	1.959
574.91	1.966
575.11	1.967
575.32	1.963
575.52	1.974
575.73	1.970
575.93	1.956
576.14	1.955
576.34	1.946
576.54	1.949
576.75	1.947
576.95	1.964
577.16	1.969
577.36	1.967
577.57	1.972
577.77	1.972
577.97	1.961
578.18	1.974
578.38	1.980
578.59	1.982
578.79	1.990
579.00	1.995
579.20	1.997
579.40	2.002
579.61	2.005
579.81	1.985
580.02	1.982
580.22	1.995
580.42	1.993
580.63	1.995
580.83	1.984
581.04	1.980
581.24	1.964
581.45	1.949
581.65	1.953
581.85	1.963
582.06	1.972
582.26	1.967
582.47	1.968
582.67	1.970
582.87	1.962
583.08	1.955
583.28	1.953
583.48	1.955
583.69	1.949
583.89	1.949
584.10	1.957
584.30	1.954
584.50	1.952
584.71	1.954
584.91	1.953
585.12	1.948
585.32	1.954
585.52	1.963
585.73	1.965
585.93	1.957
586.13	1.955
586.34	1.955
586.54	1.974
586.75	1.975
586.95	1.970
587.15	1.980
587.36	1.985
587.56	1.985
587.76	1.985
587.97	1.991
588.17	1.987
588.37	1.983
588.58	1.974
588.78	1.975
588.98	1.981
589.19	1.986
589.39	2.007
589.60	2.003
589.80	1.995
590.00	1.998
590.21	2.008
590.41	1.995
590.61	1.988
590.82	1.975
591.02	1.964
591.22	1.966
591.43	1.968
591.63	1.971
591.83	1.974
592.04	1.965
592.24	1.958
592.44	1.956
592.65	1.958
592.85	1.964
593.05	1.957
593.26	1.949
593.46	1.933
593.66	1.930
593.86	1.926
594.07	1.931
594.27	1.931
594.47	1.923
594.68	1.924
594.88	1.929
595.08	1.934
595.29	1.942
595.49	1.940
595.69	1.935
595.90	1.931
596.10	1.928
596.30	1.928
596.50	1.934
596.71	1.933
596.91	1.938
597.11	1.934
597.32	1.941
597.52	1.943
597.72	1.958
597.93	1.947
598.13	1.956
598.33	1.958
598.53	1.949
598.74	1.948
598.94	1.952
599.14	1.946
599.35	1.941
599.55	1.944
599.75	1.944
599.95	1.948
600.16	1.950
600.36	1.952
600.56	1.946
600.76	1.944
600.97	1.947
601.17	1.941
601.37	1.949
601.58	1.945
601.78	1.949
601.98	1.952
602.18	1.959
602.39	1.954
602.59	1.951
602.79	1.963
602.99	1.966
603.20	1.967
603.40	1.969
603.60	1.973
603.80	1.970
604.01	1.972
604.21	1.979
604.41	1.981
604.61	1.984
604.82	1.998
605.02	1.995
605.22	1.995
605.42	2.006
605.62	1.996
605.83	1.990
606.03	2.000
606.23	1.997
606.43	2.003
606.64	2.006
606.84	1.997
607.04	1.994
607.24	1.993
607.45	1.982
607.65	1.988
607.85	1.977
608.05	1.979
608.25	1.976
608.46	1.977
608.66	1.974
608.86	1.981
609.06	1.975
609.26	1.977
609.47	1.982
609.67	1.975
609.87	1.981
610.07	1.986
610.28	1.974
610.48	1.971
610.68	1.962
610.88	1.958
611.08	1.959
611.29	1.958
611.49	1.960
611.69	1.970
611.89	1.968
612.09	1.973
612.29	1.969
612.50	1.971
612.70	1.963
612.90	1.964
613.10	1.959
613.30	1.962
613.51	1.961
613.71	1.957
613.91	1.954
614.11	1.950
614.31	1.951
614.51	1.951
614.72	1.953
614.92	1.964
615.12	1.968
615.32	1.969
615.52	1.974
615.72	1.972
615.93	1.974
616.13	1.973
616.33	1.979
616.53	1.988
616.73	1.989
616.93	1.992
617.14	1.989
617.34	1.981
617.54	1.983
617.74	1.982
617.94	1.982
618.14	1.977
618.34	1.976
618.55	1.973
618.75	1.975
618.95	1.969
619.15	1.961
619.35	1.964
619.55	1.971
619.75	1.971
619.96	1.979
620.16	1.976
620.36	1.979
620.56	1.980
620.76	1.971
620.96	1.972
621.16	1.972
621.36	1.969
621.57	1.965
621.77	1.958
621.97	1.960
622.17	1.953
622.37	1.968
622.57	1.975
622.77	1.980
622.97	1.982
623.18	1.984
623.38	1.984
623.58	1.979
623.78	1.984
623.98	1.974
624.18	1.970
624.38	1.967
624.58	1.964
624.78	1.962
624.98	1.962
625.19	1.958
625.39	1.954
625.59	1.956
625.79	1.961
625.99	1.965
626.19	1.968
626.39	1.967
626.59	1.963
626.79	1.965
626.99	1.961
627.19	1.964
627.40	1.968
627.60	1.967
627.80	1.968
628.00	1.961
628.20	1.973
628.40	1.965
628.60	1.966
628.80	1.969
629.00	1.964
629.20	1.966
629.40	1.970
629.60	1.970
629.80	1.974
630.00	1.974
630.20	1.972
630.41	1.962
630.61	1.969
630.81	1.971
631.01	1.964
631.21	1.966
631.41	1.967
631.61	1.965
631.81	1.970
632.01	1.966
632.21	1.979
632.41	1.977
632.61	1.978
632.81	1.980
633.01	1.980
633.21	1.979
633.41	1.981
633.61	1.982
633.81	1.988
634.01	1.991
634.21	1.992
634.41	1.996
634.61	2.002
634.81	2.004
635.01	1.998
635.22	2.001
635.42	2.001
635.62	2.002
635.82	2.008
636.02	2.002
636.22	2.011
636.42	1.996
636.62	1.999
636.82	1.999
637.02	2.007
637.22	2.005
637.42	2.017
637.62	2.012
637.82	2.013
638.02	2.002
638.22	1.997
638.42	1.998
638.62	1.994
638.82	1.993
639.02	1.999
639.22	2.004
639.42	1.999
639.62	1.995
639.82	1.993
640.02	1.992
640.22	1.994
640.42	1.988
640.62	1.986
640.82	1.981
641.02	1.987
641.22	1.987
641.42	1.983
641.61	1.978
641.81	1.981
642.01	1.982
642.21	1.990
642.41	1.996
642.61	1.990
642.81	1.995
643.01	1.998
643.21	1.990
643.41	1.991
643.61	1.992
643.81	1.997
644.01	1.998
644.21	2.002
644.41	2.008
644.61	2.012
644.81	2.018
645.01	2.018
645.21	2.027
645.41	2.024
645.61	2.031
645.81	2.024
646.01	2.024
646.21	2.020
646.40	2.020
646.60	2.012
646.80	2.014
647.00	2.010
647.20	2.009
647.40	2.008
647.60	2.008
647.80	2.014
648.00	2.016
648.20	2.012
648.40	2.004
648.60	2.006
648.80	2.004
649.00	2.000
649.20	1.996
649.39	1.986
649.59	1.984
649.79	1.983
649.99	1.994
650.19	1.991
650.39	1.998
650.59	2.001
650.79	2.003
650.99	2.001
651.19	1.998
651.39	1.996
651.58	1.995
651.78	1.990
651.98	1.986
652.18	1.984
652.38	1.989
652.58	1.992
652.78	1.988
652.98	1.990
653.18	1.994
653.38	2.006
653.57	2.007
653.77	2.005
653.97	2.004
654.17	2.000
654.37	2.005
654.57	1.999
654.77	2.000
654.97	1.999
655.16	1.998
655.36	1.999
655.56	1.997
655.76	1.998
655.96	2.001
656.16	2.001
656.36	2.000
656.56	1.992
656.75	1.998
656.95	1.996
657.15	1.995
657.35	1.997
657.55	1.990
657.75	1.988
657.95	1.989
658.14	1.986
658.34	1.982
658.54	1.980
658.74	1.978
658.94	1.975
659.14	1.975
659.34	1.977
659.53	1.980
659.73	1.984
659.93	1.988
660.13	1.987
660.33	1.984
660.53	1.992
660.72	2.004
660.92	1.993
661.12	1.986
661.32	1.991
661.52	1.989
661.72	1.992
661.91	1.995
662.11	1.993
662.31	1.992
662.51	2.001
662.71	1.999
662.90	1.998
663.10	2.000
663.30	2.004
663.50	2.011
663.70	2.008
663.90	2.005
664.09	1.997
664.29	1.999
664.49	2.009
664.69	1.998
664.89	1.990
665.08	1.990
665.28	2.005
665.48	1.993
665.68	1.994
665.88	1.988
666.07	1.995
666.27	1.995
666.47	2.001
666.67	1.994
666.87	1.999
667.06	2.006
667.26	2.005
667.46	2.008
667.66	1.999
667.85	2.003
668.05	2.002
668.25	2.000
668.45	2.002
668.65	1.998
668.84	2.006
669.04	2.012
669.24	2.017
669.44	2.021
669.63	2.028
669.83	2.035
670.03	2.045
670.23	2.033
670.42	2.037
670.62	2.033
670.82	2.031
671.02	2.024
671.22	2.024
671.41	2.024
671.61	2.015
671.81	2.023
672.01	2.026
672.20	2.032
672.40	2.041
672.60	2.037
672.80	2.038
672.99	2.029
673.19	2.028
673.39	2.022
673.58	2.008
673.78	2.009
673.98	2.002
674.18	1.994
674.37	1.996
674.57	1.997
674.77	2.000
674.97	2.008
675.16	2.018
675.36	2.019
675.56	2.024
675.75	2.035
675.95	2.031
676.15	2.030
676.35	2.022
676.54	2.023
676.74	2.025
676.94	2.029
677.13	2.035
677.33	2.030
677.53	2.035
677.73	2.043
677.92	2.042
678.12	2.040
678.32	2.037
678.51	2.029
678.71	2.035
678.91	2.038
679.11	2.043
679.30	2.040
679.50	2.044
679.70	2.045
679.89	2.040
680.09	2.040
680.29	2.041
680.48	2.047
680.68	2.043
680.88	2.044
681.07	2.037
681.27	2.042
681.47	2.031
681.66	2.042
681.86	2.039
682.06	2.042
682.25	2.047
682.45	2.046
682.65	2.059
682.84	2.054
683.04	2.041
683.24	2.035
683.43	2.033
683.63	2.036
683.83	2.038
684.02	2.037
684.22	2.040
684.42	2.042
684.61	2.041
684.81	2.039
685.01	2.039
685.20	2.045
685.40	2.036
685.60	2.055
685.79	2.041
685.99	2.041
686.19	2.041
686.38	2.042
686.58	2.045
686.77	2.044
686.97	2.046
687.17	2.050
687.36	2.054
687.56	2.050
687.76	2.041
687.95	2.036
688.15	2.036
688.34	2.037
688.54	2.034
688.74	2.035
688.93	2.041
689.13	2.040
689.33	2.046
689.52	2.051
689.72	2.038
689.91	2.053
690.11	2.051
690.31	2.048
690.50	2.054
690.70	2.056
690.89	2.053
691.09	2.054
691.29	2.053
691.48	2.049
691.68	2.053
691.87	2.051
692.07	2.048
692.27	2.051
692.46	2.059
692.66	2.053
692.85	2.053
693.05	2.054
693.25	2.049
693.44	2.043
693.64	2.044
693.83	2.052
694.03	2.047
694.22	2.048
694.42	2.048
694.62	2.043
694.81	2.048
695.01	2.046
695.20	2.042
695.40	2.052
695.59	2.048
695.79	2.055
695.99	2.060
696.18	2.060
696.38	2.055
696.57	2.051
696.77	2.057
696.96	2.057
697.16	2.056
697.36	2.047
697.55	2.044
697.75	2.039
697.94	2.042
698.14	2.040
698.33	2.038
698.53	2.038
698.72	2.041
698.92	2.032
699.11	2.033
699.31	2.033
699.51	2.028
699.70	2.031
699.90	2.027
700.09	2.018
700.29	2.018
700.48	2.025
700.68	2.019
700.87	2.021
701.07	2.023
701.26	2.020
701.46	2.034
701.65	2.037
701.85	2.038
702.04	2.025
702.24	2.027
702.43	2.035
702.63	2.045
702.82	2.039
703.02	2.043
703.21	2.043
703.41	2.054
703.60	2.056
703.80	2.053
703.99	2.055
704.19	2.057
704.38	2.061
704.58	2.060
704.77	2.061
704.97	2.059
705.16	2.057
705.36	2.058
705.55	2.055
705.75	2.055
705.94	2.058
706.14	2.074
706.33	2.070
706.53	2.065
706.72	2.056
706.92	2.065
707.11	2.062
707.31	2.065
707.50	2.052
707.70	2.049
707.89	2.049
708.09	2.048
708.28	2.056
708.48	2.049
708.67	2.045
708.86	2.050
709.06	2.047
709.25	2.044
709.45	2.051
709.64	2.047
709.84	2.045
710.03	2.043
710.23	2.037
710.42	2.039
710.62	2.042
710.81	2.048
711.00	2.038
711.20	2.050
711.39	2.050
711.59	2.052
711.78	2.056
711.98	2.059
712.17	2.056
712.37	2.062
712.56	2.068
712.75	2.071
712.95	2.072
713.14	2.076
713.34	2.081
713.53	2.074
713.73	2.073
713.92	2.084
714.11	2.092
714.31	2.100
714.50	2.108
714.70	2.099
714.89	2.092
715.08	2.099
715.28	2.094
715.47	2.089
715.67	2.097
715.86	2.088
716.06	2.093
716.25	2.097
716.44	2.092
716.64	2.090
716.83	2.090
717.03	2.088
717.22	2.086
717.41	2.088
717.61	2.085
717.80	2.091
717.99	2.071
718.19	2.062
718.38	2.049
718.58	2.039
718.77	2.048
718.96	2.047
719.16	2.051
719.35	2.044
719.55	2.047
719.74	2.041
719.93	2.043
720.13	2.042
720.32	2.041
720.51	2.041
720.71	2.040
720.90	2.036
721.10	2.035
721.29	2.034
721.48	2.034
721.68	2.036
721.87	2.042
722.06	2.051
722.26	2.053
722.45	2.065
722.64	2.061
722.84	2.062
723.03	2.063
723.22	2.063
723.42	2.069
723.61	2.062
723.80	2.060
724.00	2.066
724.19	2.060
724.38	2.055
724.58	2.052
724.77	2.056
724.96	2.055
725.16	2.053
725.35	2.055
725.54	2.057
725.74	2.056
725.93	2.050
726.12	2.056
726.32	2.065
726.51	2.057
726.70	2.070
726.90	2.058
727.09	2.060
727.28	2.064
727.48	2.066
727.67	2.073
727.86	2.081
728.06	2.073
728.25	2.074
728.44	2.076
728.64	2.077
728.83	2.069
729.02	2.077
729.21	2.076
729.41	2.078
729.60	2.073
729.79	2.083
729.99	2.083
730.18	2.073
730.37	2.065
730.56	2.063
730.76	2.061
730.95	2.061
731.14	2.062
731.34	2.053
731.53	2.049
731.72	2.049
731.91	2.041
732.11	2.045
732.30	2.055
732.49	2.058
732.69	2.058
732.88	2.068
733.07	2.063
733.26	2.065
733.46	2.068
733.65	2.065
733.84	2.058
734.03	2.051
734.23	2.054
734.42	2.057
734.61	2.061
734.80	2.053
735.00	2.055
735.19	2.051
735.38	2.053
735.57	2.061
735.77	2.060
735.96	2.061
736.15	2.064
736.34	2.056
736.54	2.049
736.73	2.045
736.92	2.041
737.11	2.048
737.31	2.046
737.50	2.041
737.69	2.042
737.88	2.045
738.07	2.047
738.27	2.047
738.46	2.055
738.65	2.058
738.84	2.059
739.04	2.060
739.23	2.060
739.42	2.062
739.61	2.053
739.80	2.056
740.00	2.066
740.19	2.066
740.38	2.067
740.57	2.075
740.76	2.075
740.96	2.075
741.15	2.071
741.34	2.078
741.53	2.082
741.72	2.082
741.92	2.083
742.11	2.089
742.30	2.086
742.49	2.090
742.68	2.089
742.88	2.102
743.07	2.104
743.26	2.107
743.45	2.104
743.64	2.107
743.84	2.107
744.03	2.104
744.22	2.106
744.41	2.105
744.60	2.104
744.79	2.110
744.99	2.111
745.18	2.109
745.37	2.101
745.56	2.097
745.75	2.093
745.94	2.101
746.14	2.103
746.33	2.108
746.52	2.090
746.71	2.097
746.90	2.088
747.09	2.085
747.28	2.086
747.48	2.090
747.67	2.088
747.86	2.081
748.05	2.077
748.24	2.071
748.43	2.059
748.62	2.062
748.82	2.055
749.01	2.049
749.20	2.047
749.39	2.052
749.58	2.044
749.77	2.045
749.96	2.039
750.16	2.041
750.35	2.034
750.54	2.033
750.73	2.023
750.92	2.027
751.11	2.031
751.30	2.033
751.49	2.031
751.68	2.030
751.88	2.039
752.07	2.034
752.26	2.034
752.45	2.041
752.64	2.029
752.83	2.034
753.02	2.035
753.21	2.042
753.40	2.036
753.60	2.048
753.79	2.053
753.98	2.051
754.17	2.044
754.36	2.050
754.55	2.049
754.74	2.053
754.93	2.050
755.12	2.051
755.31	2.049
755.50	2.048
755.70	2.051
755.89	2.047
756.08	2.051
756.27	2.052
756.46	2.053
756.65	2.065
756.84	2.066
757.03	2.068
757.22	2.062
757.41	2.070
757.60	2.063
757.79	2.067
757.98	2.068
758.17	2.075
758.36	2.075
758.56	2.081
758.75	2.079
758.94	2.073
759.13	2.073
759.32	2.068
759.51	2.072
759.70	2.066
759.89	2.071
760.08	2.070
760.27	2.076
760.46	2.082
760.65	2.073
760.84	2.073
761.03	2.070
761.22	2.065
761.41	2.062
761.60	2.067
761.79	2.059
761.98	2.057
762.17	2.058
762.36	2.055
762.55	2.055
762.74	2.051
762.93	2.051
763.12	2.050
763.31	2.048
763.50	2.043
763.69	2.043
763.88	2.037
764.07	2.037
764.26	2.040
764.45	2.036
764.64	2.035
764.83	2.034
765.02	2.039
765.21	2.046
765.40	2.040
765.59	2.043
765.78	2.047
765.97	2.042
766.16	2.037
766.35	2.042
766.54	2.046
766.73	2.054
766.92	2.056
767.11	2.057
767.30	2.062
767.49	2.060
767.68	2.062
767.87	2.064
768.06	2.062
768.25	2.055
768.44	2.054
768.63	2.071
768.82	2.073
769.01	2.066
769.20	2.065
769.39	2.068
769.58	2.067
769.77	2.069
769.96	2.082
770.15	2.080
770.34	2.075
770.53	2.076
770.72	2.074
770.91	2.073
771.10	2.069
771.29	2.067
771.47	2.073
771.66	2.079
771.85	2.072
772.04	2.080
772.23	2.077
772.42	2.088
772.61	2.079
772.80	2.076
772.99	2.084
773.18	2.080
773.37	2.083
773.56	2.081
773.75	2.080
773.94	2.073
774.13	2.075
774.31	2.075
774.50	2.068
774.69	2.065
774.88	2.076
775.07	2.073
775.26	2.068
775.45	2.065
775.64	2.067
775.83	2.078
776.02	2.084
776.21	2.085
776.40	2.073
776.58	2.076
776.77	2.082
776.96	2.084
777.15	2.088
777.34	2.094
777.53	2.096
777.72	2.095
777.91	2.100
778.10	2.106
778.28	2.103
778.47	2.108
778.66	2.104
778.85	2.097
779.04	2.099
779.23	2.101
779.42	2.106
779.61	2.102
779.79	2.100
779.98	2.084
780.17	2.082
780.36	2.083
780.55	2.082
780.74	2.079
780.93	2.074
781.12	2.076
781.30	2.069
781.49	2.063
781.68	2.059
781.87	2.057
782.06	2.044
782.25	2.050
782.44	2.048
782.62	2.056
782.81	2.053
783.00	2.056
783.19	2.060
783.38	2.054
783.57	2.055
783.75	2.046
783.94	2.052
784.13	2.053
784.32	2.054
784.51	2.048
784.70	2.045
784.88	2.045
785.07	2.036
785.26	2.035
785.45	2.041
785.64	2.046
785.83	2.046
786.01	2.056
786.20	2.055
786.39	2.063
786.58	2.057
786.77	2.066
786.95	2.066
787.14	2.067
787.33	2.064
787.52	2.054
787.71	2.054
787.90	2.053
788.08	2.061
788.27	2.063
788.46	2.056
788.65	2.055
788.84	2.053
789.02	2.050
789.21	2.050
789.40	2.043
789.59	2.042
789.77	2.042
789.96	2.033
790.15	2.023
790.34	2.013
790.53	2.019
790.71	2.012
790.90	2.014
791.09	2.016
791.28	2.024
791.46	2.038
791.65	2.050
791.84	2.048
792.03	2.045
792.22	2.043
792.40	2.055
792.59	2.060
792.78	2.065
792.97	2.078
793.15	2.088
793.34	2.094
793.53	2.099
793.72	2.097
793.90	2.108
794.09	2.121
794.28	2.128
794.47	2.127
794.65	2.125
794.84	2.130
795.03	2.124
795.22	2.124
795.40	2.117
795.59	2.108
795.78	2.110
795.97	2.109
796.15	2.103
796.34	2.101
796.53	2.108
796.71	2.104
796.90	2.097
797.09	2.084
797.28	2.076
797.46	2.067
797.65	2.067
797.84	2.068
798.02	2.065
798.21	2.061
798.40	2.056
798.59	2.060
798.77	2.054
798.96	2.050
799.15	2.051
799.33	2.051
799.52	2.053
799.71	2.049
799.90	2.044
800.08	2.049
800.27	2.054
800.46	2.057
800.64	2.057
800.83	2.057
801.02	2.063
801.20	2.065
801.39	2.070
801.58	2.067
801.76	2.066
801.95	2.068
802.14	2.067
802.32	2.066
802.51	2.065
802.70	2.069
802.88	2.071
803.07	2.064
803.26	2.070
803.44	2.073
803.63	2.081
803.82	2.083
804.00	2.082
804.19	2.078
804.38	2.068
804.56	2.075
804.75	2.080
804.94	2.075
805.12	2.074
805.31	2.075
805.50	2.080
805.68	2.074
805.87	2.073
806.06	2.078
806.24	2.079
806.43	2.080
806.62	2.076
806.80	2.081
806.99	2.087
807.17	2.075
807.36	2.064
807.55	2.059
807.73	2.056
807.92	2.059
808.11	2.061
808.29	2.057
808.48	2.055
808.66	2.049
808.85	2.052
809.04	2.056
809.22	2.050
809.41	2.054
809.59	2.059
809.78	2.055
809.97	2.055
810.15	2.056
810.34	2.054
810.53	2.058
810.71	2.059
810.90	2.059
811.08	2.070
811.27	2.071
811.45	2.067
811.64	2.070
811.83	2.069
812.01	2.065
812.20	2.064
812.38	2.062
812.57	2.065
812.76	2.065
812.94	2.062
813.13	2.068
813.31	2.061
813.50	2.060
813.68	2.067
813.87	2.069
814.06	2.070
814.24	2.073
814.43	2.071
814.61	2.068
814.80	2.063
814.98	2.062
815.17	2.068
815.36	2.073
815.54	2.070
815.73	2.067
815.91	2.067
816.10	2.065
816.28	2.066
816.47	2.065
816.65	2.061
816.84	2.067
817.03	2.062
817.21	2.061
817.40	2.053
817.58	2.051
817.77	2.048
817.95	2.045
818.14	2.043
818.32	2.043
818.51	2.041
818.69	2.044
818.88	2.045
819.06	2.046
819.25	2.045
819.43	2.045
819.62	2.042
819.80	2.048
819.99	2.051
820.18	2.057
820.36	2.058
820.55	2.065
820.73	2.056
820.92	2.064
821.10	2.068
821.29	2.074
821.47	2.068
821.66	2.070
821.84	2.071
822.03	2.067
822.21	2.065
822.40	2.070
822.58	2.071
822.77	2.066
822.95	2.074
823.14	2.075
823.32	2.079
823.50	2.084
823.69	2.079
823.87	2.074
824.06	2.062
824.24	2.060
824.43	2.059
824.61	2.061
824.80	2.054
824.98	2.048
825.17	2.050
825.35	2.052
825.54	2.049
825.72	2.050
825.91	2.051
826.09	2.052
826.28	2.055
826.46	2.052
826.64	2.053
826.83	2.047
827.01	2.050
827.20	2.050
827.38	2.056
827.57	2.058
827.75	2.063
827.94	2.064
828.12	2.065
828.31	2.060
828.49	2.063
828.67	2.067
828.86	2.070
829.04	2.068
829.23	2.069
829.41	2.070
829.60	2.065
829.78	2.065
829.96	2.059
830.15	2.054
830.33	2.058
830.52	2.063
830.70	2.060
830.88	2.054
831.07	2.060
831.25	2.056
831.44	2.052
831.62	2.054
831.81	2.059
831.99	2.058
832.17	2.056
832.36	2.053
832.54	2.047
832.73	2.047
832.91	2.046
833.09	2.049
833.28	2.050
833.46	2.056
833.65	2.062
833.83	2.064
834.01	2.068
834.20	2.068
834.38	2.068
834.56	2.070
834.75	2.064
834.93	2.061
835.12	2.060
835.30	2.065
835.48	2.070
835.67	2.065
835.85	2.074
836.03	2.081
836.22	2.091
836.40	2.092
836.59	2.099
836.77	2.096
836.95	2.094
837.14	2.095
837.32	2.103
837.50	2.099
837.69	2.103
837.87	2.095
838.05	2.106
838.24	2.104
838.42	2.101
838.60	2.108
838.79	2.102
838.97	2.101
839.15	2.103
839.34	2.097
839.52	2.097
839.70	2.091
839.89	2.091
840.07	2.082
840.25	2.094
840.44	2.092
840.62	2.094
840.80	2.093
840.99	2.085
841.17	2.087
841.35	2.091
841.54	2.087
841.72	2.090
841.90	2.068
842.09	2.062
842.27	2.064
842.45	2.063
842.64	2.068
842.82	2.069
843.00	2.054
843.19	2.054
843.37	2.062
843.55	2.065
843.73	2.059
843.92	2.059
844.10	2.057
844.28	2.056
844.47	2.053
844.65	2.051
844.83	2.055
845.01	2.038
845.20	2.028
845.38	2.035
845.56	2.034
845.75	2.041
845.93	2.040
846.11	2.046
846.29	2.042
846.48	2.036
846.66	2.035
846.84	2.045
847.02	2.043
847.21	2.041
847.39	2.032
847.57	2.036
847.76	2.038
847.94	2.030
848.12	2.021
848.30	2.027
848.49	2.032
848.67	2.036
848.85	2.046
849.03	2.053
849.22	2.044
849.40	2.046
849.58	2.044
849.76	2.041
849.95	2.031
850.13	2.039
850.31	2.041
850.49	2.045
850.67	2.047
850.86	2.053
851.04	2.052
851.22	2.052
851.40	2.055
851.59	2.048
851.77	2.048
851.95	2.055
852.13	2.050
852.31	2.050
852.50	2.047
852.68	2.052
852.86	2.047
853.04	2.050
853.23	2.041
853.41	2.041
853.59	2.044
853.77	2.047
853.95	2.055
854.14	2.057
854.32	2.052
854.50	2.059
854.68	2.047
854.86	2.047
855.04	2.052
855.23	2.037
855.41	2.034
855.59	2.032
855.77	2.032
855.95	2.036
856.14	2.035
856.32	2.033
856.50	2.030
856.68	2.043
856.86	2.046
857.04	2.051
857.23	2.051
857.41	2.047
857.59	2.042
857.77	2.029
857.95	2.035
858.13	2.031
858.32	2.020
858.50	2.030
858.68	2.029
858.86	2.031
859.04	2.047
859.22	2.058
859.41	2.058
859.59	2.066
859.77	2.066
859.95	2.057
860.13	2.059
860.31	2.051
860.49	2.044
860.68	2.047
860.86	2.050
861.04	2.056
861.22	2.057
861.40	2.062
861.58	2.059
861.76	2.060
861.94	2.059
862.13	2.063
862.31	2.062
862.49	2.058
862.67	2.057
862.85	2.053
863.03	2.047
863.21	2.049
863.39	2.041
863.57	2.038
863.76	2.042
863.94	2.032
864.12	2.033
864.30	2.033
864.48	2.023
864.66	2.021
864.84	2.021
865.02	2.022
865.20	2.020
865.38	2.027
865.57	2.022
865.75	2.032
865.93	2.027
866.11	2.019
866.29	2.021
866.47	2.021
866.65	2.015
866.83	2.016
867.01	2.018
867.19	2.011
867.37	2.013
867.55	2.019
867.73	2.024
867.92	2.027
868.10	2.027
868.28	2.036
868.46	2.037
868.64	2.032
868.82	2.036
869.00	2.040
869.18	2.038
869.36	2.034
869.54	2.031
869.72	2.043
869.90	2.050
870.08	2.048
870.26	2.047
870.44	2.050
870.62	2.054
870.80	2.059
870.98	2.060
871.16	2.061
871.34	2.051
871.53	2.055
871.71	2.057
871.89	2.053
872.07	2.054
872.25	2.055
872.43	2.054
872.61	2.061
872.79	2.055
872.97	2.054
873.15	2.061
873.33	2.065
873.51	2.050
873.69	2.056
873.87	2.062
874.05	2.064
874.23	2.065
874.41	2.061
874.59	2.056
874.77	2.060
874.95	2.065
875.13	2.073
875.31	2.073
875.49	2.069
875.67	2.069
875.85	2.063
876.03	2.059
876.21	2.060
876.39	2.057
876.57	2.068
876.75	2.076
876.93	2.071
877.11	2.068
877.29	2.081
877.47	2.077
877.65	2.071
877.82	2.074
878.00	2.072
878.18	2.071
878.36	2.064
878.54	2.072
878.72	2.064
878.90	2.061
879.08	2.057
879.26	2.059
879.44	2.059
879.62	2.063
879.80	2.060
879.98	2.065
880.16	2.055
880.34	2.044
880.52	2.041
880.70	2.047
880.88	2.040
881.06	2.027
881.24	2.026
881.42	2.027
881.59	2.023
881.77	2.029
881.95	2.027
882.13	2.031
882.31	2.026
882.49	2.033
882.67	2.041
882.85	2.039
883.03	2.039
883.21	2.040
883.39	2.033
883.57	2.033
883.75	2.029
883.92	2.036
884.10	2.044
884.28	2.040
884.46	2.030
884.64	2.032
884.82	2.032
885.00	2.033
885.18	2.038
885.36	2.030
885.54	2.024
885.71	2.026
885.89	2.028
886.07	2.023
886.25	2.013
886.43	2.006
886.61	2.015
886.79	2.010
886.97	2.008
887.15	2.015
887.32	2.018
887.50	2.020
887.68	2.017
887.86	2.011
888.04	2.014
888.22	2.014
888.40	2.013
888.57	2.018
888.75	2.017
888.93	2.015
889.11	2.023
889.29	2.028
889.47	2.026
889.65	2.026
889.82	2.025
890.00	2.033
890.18	2.030
890.36	2.022
890.54	2.022
890.72	2.030
890.90	2.027
891.07	2.028
891.25	2.028
891.43	2.036
891.61	2.035
891.79	2.028
891.97	2.033
892.14	2.036
892.32	2.036
892.50	2.037
892.68	2.036
892.86	2.037
893.03	2.036
893.21	2.031
893.39	2.034
893.57	2.034
893.75	2.031
893.93	2.036
894.10	2.041
894.28	2.037
894.46	2.029
894.64	2.031
894.82	2.027
894.99	2.025
895.17	2.020
895.35	2.026
895.53	2.028
895.71	2.028
895.88	2.022
896.06	2.027
896.24	2.022
896.42	2.015
896.59	2.014
896.77	2.011
896.95	2.022
897.13	2.021
897.31	2.027
897.48	2.028
897.66	2.024
897.84	2.030
898.02	2.034
898.19	2.036
898.37	2.035
898.55	2.034
898.73	2.036
898.91	2.033
899.08	2.031
899.26	2.031
899.44	2.030
899.62	2.034
899.79	2.032
899.97	2.034
900.15	2.034
900.33	2.034
900.50	2.038
900.68	2.033
900.86	2.027
901.04	2.026
901.21	2.025
901.39	2.027
901.57	2.020
901.74	2.020
901.92	2.021
902.10	2.018
902.28	2.017
902.45	2.014
902.63	2.013
902.81	2.007
902.99	2.011
903.16	2.015
903.34	2.015
903.52	2.013
903.69	2.010
903.87	2.014
904.05	2.012
904.22	2.010
904.40	2.008
904.58	2.012
904.76	2.013
904.93	2.009
905.11	2.008
905.29	2.007
905.46	2.012
905.64	2.010
905.82	2.005
905.99	2.005
906.17	2.006
906.35	2.003
906.53	2.008
906.70	2.004
906.88	1.999
907.06	1.997
907.23	2.001
907.41	2.002
907.59	2.005
907.76	2.008
907.94	2.009
908.12	2.007
908.29	2.005
908.47	2.001
908.65	1.993
908.82	1.993
909.00	1.995
909.18	1.989
909.35	1.984
909.53	1.995
909.71	1.998
909.88	2.004
910.06	2.006
910.23	2.007
910.41	2.008
910.59	2.006
910.76	2.007
910.94	2.005
911.12	2.006
911.29	2.007
911.47	2.004
911.65	2.003
911.82	2.001
912.00	2.009
912.17	2.015
912.35	2.023
912.53	2.017
912.70	2.012
912.88	2.016
913.06	2.022
913.23	2.014
913.41	2.015
913.58	2.007
913.76	2.003
913.94	2.003
914.11	2.001
914.29	1.997
914.46	1.996
914.64	1.997
914.82	1.992
914.99	1.986
915.17	1.987
915.34	1.991
915.52	1.997
915.70	1.995
915.87	1.991
916.05	1.989
916.22	1.994
916.40	2.001
916.57	1.992
916.75	1.988
916.93	1.990
917.10	1.983
917.28	1.987
917.45	1.991
917.63	1.990
917.80	1.996
917.98	2.000
918.16	1.999
918.33	1.999
918.51	2.002
918.68	2.007
918.86	2.003
919.03	1.999
919.21	1.995
919.39	1.994
919.56	1.994
919.74	1.997
919.91	1.994
920.09	1.990
920.26	1.992
920.44	1.994
920.61	1.998
920.79	2.007
920.96	2.000
921.14	1.997
921.31	1.995
921.49	1.991
921.67	1.989
921.84	1.984
922.02	1.982
922.19	1.979
922.37	1.978
922.54	1.972
922.72	1.970
922.89	1.969
923.07	1.969
923.24	1.968
923.42	1.971
923.59	1.970
923.77	1.970
923.94	1.970
924.12	1.966
924.29	1.963
924.47	1.962
924.64	1.972
924.82	1.971
924.99	1.979
925.17	1.985
925.34	1.989
925.52	1.994
925.69	1.988
925.87	1.989
926.04	1.992
926.22	2.002
926.39	2.002
926.57	1.999
926.74	1.997
926.91	1.993
927.09	1.996
927.26	2.004
927.44	2.003
927.61	2.010
927.79	2.018
927.96	2.014
928.14	2.017
928.31	2.020
928.49	2.022
928.66	2.018
928.84	2.007
929.01	2.008
929.18	2.007
929.36	2.014
929.53	2.017
929.71	2.015
929.88	2.022
930.06	2.026
930.23	2.030
930.41	2.028
930.58	2.029
930.75	2.021
930.93	2.015
931.10	2.017
931.28	2.013
931.45	2.010
931.63	2.009
931.80	2.002
931.97	1.996
932.15	2.003
932.32	2.002
932.50	2.007
932.67	2.005
932.84	2.007
933.02	2.009
933.19	2.006
933.37	1.999
933.54	1.984
933.71	1.978
933.89	1.980
934.06	1.981
934.24	1.984
934.41	1.980
934.58	1.979
934.76	1.977
934.93	1.976
935.11	1.970
935.28	1.979
935.45	1.981
935.63	1.972
935.80	1.965
935.98	1.957
936.15	1.963
936.32	1.967
936.50	1.964
936.67	1.962
936.84	1.963
937.02	1.965
937.19	1.984
937.36	1.985
937.54	1.986
937.71	1.994
937.89	1.998
938.06	2.007
938.23	2.011
938.41	2.014
938.58	2.010
938.75	2.016
938.93	2.013
939.10	2.014
939.27	2.019
939.45	2.010
939.62	2.025
939.79	2.016
939.97	2.002
940.14	2.011
940.31	2.011
940.49	2.012
940.66	2.015
940.83	1.991
941.01	2.001
941.18	1.996
941.35	1.992
941.53	1.977
941.70	1.964
941.87	1.958
942.05	1.959
942.22	1.964
942.39	1.964
942.57	1.959
942.74	1.961
942.91	1.963
943.08	1.970
943.26	1.964
943.43	1.958
943.60	1.960
943.78	1.948
943.95	1.956
944.12	1.951
944.29	1.955
944.47	1.973
944.64	1.965
944.81	1.971
944.99	1.958
945.16	1.968
945.33	1.970
945.50	1.970
945.68	1.958
945.85	1.959
946.02	1.958
946.20	1.956
946.37	1.947
946.54	1.949
946.71	1.947
946.89	1.940
947.06	1.952
947.23	1.957
947.40	1.968
947.58	1.962
947.75	1.970
947.92	1.954
948.09	1.936
948.27	1.940
948.44	1.939
948.61	1.948
948.78	1.944
948.96	1.945
949.13	1.948
949.30	1.954
949.47	1.959
949.65	1.957
949.82	1.956
949.99	1.960
950.16	1.957
950.33	1.974
950.51	1.974
950.68	1.968
950.85	1.978
951.02	1.973
951.20	1.968
951.37	1.967
951.54	1.982
951.71	1.999
951.88	1.992
952.06	1.993
952.23	1.989
952.40	1.988
952.57	1.989
952.74	1.995
952.92	1.998
953.09	1.996
953.26	2.002
953.43	2.007
953.60	2.006
953.77	1.999
953.95	1.989
954.12	1.996
954.29	1.990
954.46	1.979
954.63	1.982
954.81	1.989
954.98	1.980
955.15	1.987
955.32	1.982
955.49	1.994
955.66	1.993
955.84	2.004
956.01	2.021
956.18	2.025
956.35	2.021
956.52	2.018
956.69	2.026
956.87	2.020
957.04	2.033
957.21	2.042
957.38	2.057
957.55	2.044
957.72	2.032
957.89	2.038
958.07	2.027
958.24	2.020
958.41	2.016
958.58	2.010
958.75	1.991
958.92	1.982
959.09	1.986
959.26	1.973
959.44	1.965
959.61	1.950
959.78	1.953
959.95	1.948
960.12	1.950
960.29	1.936
960.46	1.942
960.63	1.928
960.81	1.915
960.98	1.917
961.15	1.922
961.32	1.919
961.49	1.916
961.66	1.928
961.83	1.918
962.00	1.909
962.17	1.912
962.34	1.912
962.52	1.921
962.69	1.912
962.86	1.918
963.03	1.928
963.20	1.933
963.37	1.925
963.54	1.920
963.71	1.916
963.88	1.918
964.05	1.915
964.22	1.908
964.39	1.918
964.56	1.906
964.74	1.917
964.91	1.929
965.08	1.940
965.25	1.926
965.42	1.938
965.59	1.943
965.76	1.947
965.93	1.947
966.10	1.947
966.27	1.937
966.44	1.938
966.61	1.925
966.78	1.932
966.95	1.946
967.12	1.943
967.29	1.960
967.46	1.951
967.63	1.947
967.80	1.962
967.97	1.965
968.14	1.983
968.32	1.970
968.49	1.972
968.66	1.965
968.83	1.971
969.00	1.965
969.17	1.971
969.34	1.967
969.51	1.968
969.68	1.950
969.85	1.961
970.02	1.955
970.19	1.972
970.36	1.969
970.53	1.966
970.70	1.975
970.87	1.979
971.04	1.994
971.21	1.999
971.38	2.000
971.55	2.005
971.72	1.985
971.89	1.987
972.06	1.998
972.23	2.002
972.40	2.015
972.57	2.015
972.74	2.008
972.91	2.002
973.07	2.005
973.24	2.024
973.41	2.022
973.58	2.018
973.75	2.008
973.92	1.993
974.09	2.006
974.26	2.012
974.43	1.990
974.60	1.991
974.77	1.992
974.94	1.972
975.11	1.961
975.28	1.958
975.45	1.964
975.62	1.943
975.79	1.939
975.96	1.930
976.13	1.943
976.30	1.930
976.47	1.948
976.64	1.943
976.80	1.939
976.97	1.936
977.14	1.954
977.31	1.955
977.48	1.978
977.65	1.964
977.82	1.976
977.99	1.980
978.16	1.975
978.33	1.970
978.50	1.977
978.67	1.968
978.83	1.977
979.00	1.968
979.17	1.977
979.34	1.971
979.51	1.968
979.68	1.969
979.85	1.981
980.02	1.977
980.19	1.980
980.36	1.988
980.52	1.990
980.69	1.972
980.86	1.962
981.03	1.949
981.20	1.952
981.37	1.941
981.54	1.939
981.71	1.936
981.88	1.942
982.04	1.950
982.21	1.952
982.38	1.934
982.55	1.933
982.72	1.944
982.89	1.956
983.06	1.967
983.22	1.949
983.39	1.950
983.56	1.946
983.73	1.931
983.90	1.924
984.07	1.919
984.24	1.942
984.40	1.940
984.57	1.936
984.74	1.932
984.91	1.931
985.08	1.916
985.25	1.920
985.41	1.908
985.58	1.912
985.75	1.917
985.92	1.936
986.09	1.950
986.26	1.949
986.42	1.961
986.59	1.962
986.76	1.967
986.93	1.984
987.10	2.005
987.27	2.037
987.43	2.051
987.60	2.056
987.77	2.034
987.94	2.026
988.11	2.016
988.27	2.008
988.44	2.023
988.61	2.060
988.78	2.072
988.95	2.094
989.11	2.075
989.28	2.092
989.45	2.139
989.62	2.128
989.79	2.084
989.95	2.062
990.12	2.029
990.29	2.036
990.46	2.012
990.62	1.982
990.79	1.972
990.96	1.969
991.13	1.954
991.30	1.962
991.46	1.992
991.63	1.991
991.80	1.974
991.97	1.961
992.13	1.939
992.30	1.935
992.47	1.929
992.64	1.943
992.80	1.927
992.97	1.907
993.14	1.908
993.31	1.902
993.47	1.900
993.64	1.920
993.81	1.927
993.98	1.928
994.14	1.936
994.31	1.949
994.48	1.944
994.64	1.960
994.81	1.956
994.98	1.946
995.15	1.955
995.31	1.978
995.48	1.977
995.65	2.000
995.82	1.987
995.98	2.008
996.15	2.014
996.32	2.021
996.48	1.984
996.65	1.960
996.82	2.007
996.99	1.981
997.15	1.997
997.32	1.999
997.49	2.016
997.65	2.021
997.82	1.999
997.99	2.023
998.15	2.028
998.32	2.019
998.49	2.004
998.65	2.002
998.82	1.997
998.99	1.988
999.15	1.959
999.32	1.952
999.49	1.913
999.65	1.905
999.82	1.918
999.99	1.909
1000.15	1.942
1000.32	1.932
1000.49	1.964
1000.65	1.957
1000.82	1.934
1000.99	1.920
1001.15	1.917
1001.32	1.936
1001.49	1.918
1001.65	1.901
1001.82	1.896
1001.99	1.913
1002.15	1.916
1002.32	1.928
1002.49	1.934
1002.65	1.939
1002.82	1.973
1002.99	1.992
1003.15	1.976
1003.32	1.962
1003.48	1.981
1003.65	1.973
1003.82	1.948
1003.98	1.934
1004.15	1.922
1004.32	1.936
1004.48	1.936
1004.65	1.932
1004.81	1.941
1004.98	1.940
1005.15	1.956
1005.31	1.989
1005.48	1.997
1005.64	1.980
1005.81	1.994
1005.98	1.990
1006.14	2.007
1006.31	1.993
1006.47	1.983
1006.64	1.984
1006.81	1.992
1006.97	1.992
1007.14	1.964
1007.30	1.992
1007.47	1.991
1007.63	1.980
1007.80	1.976
1007.97	2.017
1008.13	1.987
1008.30	1.973
1008.46	1.960
1008.63	1.966
1008.79	1.917
1008.96	1.910
1009.13	1.929
1009.29	1.911
1009.46	1.913
1009.62	1.920
1009.79	1.907
1009.95	1.905
1010.12	1.907
1010.28	1.917
1010.45	1.922
1010.62	1.923
1010.78	1.924
1010.95	1.982
1011.11	2.007
1011.28	1.986
1011.44	1.951
1011.61	1.991
1011.77	1.958
1011.94	1.949
1012.10	1.957
1012.27	2.006
1012.43	1.976
1012.60	1.969
1012.76	1.970
1012.93	1.980
1013.10	1.928
1013.26	1.956
1013.43	1.969
1013.59	1.983
1013.76	1.946
1013.92	1.947
1014.09	1.975
1014.25	1.909
1014.42	1.865
1014.58	1.866
1014.75	1.884
1014.91	1.884
1015.08	1.867
1015.24	1.868
1015.41	1.843
1015.57	1.848
1015.73	1.848
1015.90	1.871
1016.06	1.871
1016.23	1.867
1016.39	1.876
1016.56	1.886
1016.72	1.866
1016.89	1.878
1017.05	1.847
1017.22	1.871
1017.38	1.840
1017.55	1.822
1017.71	1.854
1017.88	1.888
1018.04	1.905
1018.21	1.887
1018.37	1.855
1018.53	1.897
1018.70	1.932
1018.86	2.003
1019.03	1.954
1019.19	1.956
1019.36	1.975
1019.52	1.987
1019.69	1.999
1019.85	1.950
1020.01	1.984
1020.18	1.966
1020.34	1.934
1020.51	1.966
1020.67	1.997
1020.84	2.042
1021.00	2.029
1021.16	2.044
1021.33	2.006
1021.49	1.966
1021.66	1.965
1021.82	1.989
1021.98	1.940
1022.15	1.963
1022.31	1.898
1022.48	1.924
1022.64	1.883
1022.80	1.843
1022.97	1.807
1023.13	1.810
1023.30	1.828
1023.46	1.841
1023.62	1.854
1023.79	1.862
1023.95	1.854
1024.12	1.819
1024.28	1.827
1024.44	1.835
1024.61	1.815
1024.77	1.829
1024.93	1.812
1025.10	1.854
1025.26	1.877
1025.43	1.920
1025.59	1.915
1025.75	1.969
1025.92	1.927
1026.08	1.913
1026.24	1.904
1026.41	1.929
1026.57	1.926
1026.73	1.897
1026.90	1.909
1027.06	1.888
1027.23	1.894
1027.39	1.922
1027.55	1.955
1027.72	1.980
1027.88	2.005
1028.04	2.067
1028.21	2.048
1028.37	2.123
1028.53	2.110
1028.70	2.043
1028.86	2.017
1029.02	2.002
1029.19	1.964
1029.35	2.024
1029.51	2.099
1029.67	2.135
1029.84	2.149
1030.00	2.116
1030.16	2.308
1030.33	2.161
1030.49	2.120
1030.65	2.134
1030.82	2.123
1030.98	2.044
1031.14	1.978
1031.31	1.958
1031.47	1.994
1031.63	1.968
1031.79	1.914
1031.96	1.884
1032.12	1.948
1032.28	1.935
1032.45	1.863
1032.61	1.897
1032.77	1.865
1032.93	1.885
1033.10	1.861
1033.26	1.902
1033.42	1.901
1033.58	1.847
1033.75	1.847
1033.91	1.921
1034.07	1.960
1034.24	1.975
1034.40	1.982
1034.56	1.940
1034.72	1.978
1034.89	1.905
1035.05	1.893
1035.21	1.896
1035.37	1.918
1035.54	1.875
1035.70	1.889
1035.86	1.977
1036.02	1.923
1036.19	1.937
1036.35	1.903
1036.51	1.903
1036.67	1.829
1036.83	1.801
1037.00	1.771
1037.16	1.781
1037.32	1.746
1037.48	1.731
1037.65	1.715
1037.81	1.741
1037.97	1.767
1038.13	1.777
1038.29	1.779
1038.46	1.792
1038.62	1.803
1038.78	1.807
1038.94	1.778
1039.10	1.761
1039.27	1.739
1039.43	1.739
1039.59	1.742
1039.75	1.733
1039.91	1.742
1040.08	1.776
1040.24	1.798
1040.40	1.874
1040.56	1.876
1040.72	1.889
1040.89	1.841
1041.05	1.845
1041.21	1.796
1041.37	1.773
1041.53	1.736
1041.69	1.745
1041.86	1.745
1042.02	1.743
1042.18	1.732
1042.34	1.764
1042.50	1.777
1042.66	1.783
1042.83	1.873
1042.99	1.894
1043.15	1.862
1043.31	1.906
1043.47	1.964
1043.63	1.989
1043.79	1.909
1043.96	1.923
1044.12	1.895
1044.28	1.947
1044.44	1.996
1044.60	2.080
1044.76	2.217
1044.92	2.212
1045.09	2.163
1045.25	2.134
1045.41	1.876
1045.57	1.734
1045.73	1.475
1045.89	2.914
1046.05	-0.000
1046.21	-0.000
1046.38	2.145
1046.54	1.731
1046.70	1.486
1046.86	1.710
>>>>>End Processed Spectral Data<<<<<
