SpectraSuite Data File
++++++++++++++++++++++++++++++++++++
Date: Mon May 06 14:17:16 CDT 2013
User: Students
Dark Spectrum Present: Yes
Reference Spectrum Present: Yes
Number of Sampled Component Spectra: 1
Spectrometers: USB4H00887
Integration Time (usec): 25000 (USB4H00887)
Spectra Averaged: 10 (USB4H00887)
Boxcar Smoothing: 10 (USB4H00887)
Correct for Electrical Dark: No (USB4H00887)
Strobe/Lamp Enabled: No (USB4H00887)
Correct for Detector Non-linearity: No (USB4H00887)
Correct for Stray Light: No (USB4H00887)
Number of Pixels in Processed Spectrum: 3648
>>>>>Begin Processed Spectral Data<<<<<
345.83	0.155
346.05	0.155
346.26	0.155
346.48	0.125
346.70	-0.168
346.92	1.012
347.14	1.394
347.35	-0.000
347.57	-0.859
347.79	-0.344
348.01	0.112
348.23	0.197
348.44	0.281
348.66	0.346
348.88	0.370
349.10	0.403
349.32	0.393
349.53	0.373
349.75	0.271
349.97	0.563
350.19	0.997
350.41	-0.000
350.62	-0.000
350.84	-0.000
351.06	-0.000
351.28	-0.000
351.50	-0.000
351.71	-0.000
351.93	-0.000
352.15	-0.000
352.37	-0.000
352.58	-0.000
352.80	-0.000
353.02	-0.000
353.24	-0.000
353.46	-0.000
353.67	-0.000
353.89	-0.000
354.11	-0.000
354.33	-0.000
354.54	-0.000
354.76	-0.000
354.98	-0.000
355.20	-0.000
355.41	-0.000
355.63	-0.000
355.85	-0.000
356.07	-0.000
356.28	-0.000
356.50	-0.000
356.72	-0.000
356.94	-0.000
357.15	-0.000
357.37	-0.000
357.59	-0.000
357.81	-0.000
358.02	-0.000
358.24	-0.000
358.46	-0.000
358.68	-0.000
358.89	1.136
359.11	1.249
359.33	0.910
359.55	0.718
359.76	0.723
359.98	0.724
360.20	0.683
360.42	0.757
360.63	0.607
360.85	0.612
361.07	0.641
361.29	0.601
361.50	0.713
361.72	0.835
361.94	0.692
362.15	0.632
362.37	0.575
362.59	0.530
362.81	0.641
363.02	0.810
363.24	0.969
363.46	-0.000
363.68	1.990
363.89	-0.000
364.11	-0.000
364.33	-0.000
364.54	-0.000
364.76	-0.000
364.98	-0.000
365.20	1.671
365.41	1.298
365.63	1.937
365.85	-0.000
366.06	-0.000
366.28	-0.000
366.50	-0.000
366.71	-0.000
366.93	-0.000
367.15	-0.000
367.37	-0.000
367.58	-0.000
367.80	-0.000
368.02	2.014
368.23	-0.000
368.45	-0.000
368.67	-0.000
368.88	-0.000
369.10	-0.000
369.32	-0.000
369.53	-0.000
369.75	-0.000
369.97	-0.000
370.19	-0.000
370.40	-0.000
370.62	-0.000
370.84	-0.000
371.05	-0.000
371.27	-0.000
371.49	-0.000
371.70	-0.000
371.92	1.972
372.14	-0.000
372.35	1.901
372.57	1.467
372.79	0.850
373.00	0.871
373.22	0.984
373.44	0.732
373.65	0.873
373.87	1.003
374.09	0.749
374.30	0.699
374.52	0.930
374.74	1.585
374.95	1.291
375.17	1.100
375.39	1.738
375.60	1.378
375.82	1.377
376.04	-0.000
376.25	-0.000
376.47	-0.000
376.68	-0.000
376.90	-0.000
377.12	-0.000
377.33	-0.000
377.55	-0.000
377.77	-0.000
377.98	-0.000
378.20	-0.000
378.42	-0.000
378.63	-0.000
378.85	-0.000
379.07	-0.000
379.28	-0.000
379.50	-0.000
379.71	-0.000
379.93	-0.000
380.15	-0.000
380.36	-0.000
380.58	-0.000
380.80	-0.000
381.01	-0.000
381.23	-0.000
381.44	-0.000
381.66	-0.000
381.88	-0.000
382.09	-0.000
382.31	-0.000
382.53	-0.000
382.74	-0.000
382.96	-0.000
383.17	-0.000
383.39	-0.000
383.61	-0.000
383.82	-0.000
384.04	-0.000
384.25	-0.000
384.47	-0.000
384.69	-0.000
384.90	-0.000
385.12	-0.000
385.33	-0.000
385.55	-0.000
385.77	-0.000
385.98	-0.000
386.20	-0.000
386.41	-0.000
386.63	-0.000
386.85	-0.000
387.06	-0.000
387.28	-0.000
387.49	-0.000
387.71	-0.000
387.93	2.022
388.14	3.069
388.36	1.807
388.57	1.270
388.79	1.219
389.01	1.084
389.22	1.180
389.44	1.233
389.65	1.275
389.87	1.177
390.08	1.188
390.30	1.023
390.52	1.173
390.73	1.216
390.95	1.207
391.16	1.162
391.38	1.379
391.59	1.701
391.81	-0.000
392.03	3.037
392.24	-0.000
392.46	-0.000
392.67	-0.000
392.89	-0.000
393.10	-0.000
393.32	-0.000
393.53	-0.000
393.75	-0.000
393.97	-0.000
394.18	-0.000
394.40	-0.000
394.61	-0.000
394.83	-0.000
395.04	-0.000
395.26	-0.000
395.47	-0.000
395.69	-0.000
395.91	-0.000
396.12	-0.000
396.34	2.212
396.55	-0.000
396.77	-0.000
396.98	-0.000
397.20	-0.000
397.41	-0.000
397.63	-0.000
397.84	1.821
398.06	1.815
398.27	3.205
398.49	1.390
398.71	1.537
398.92	1.457
399.14	1.775
399.35	-0.000
399.57	2.377
399.78	-0.000
400.00	1.677
400.21	1.338
400.43	1.397
400.64	1.490
400.86	1.497
401.07	1.379
401.29	1.379
401.50	1.471
401.72	1.547
401.93	1.627
402.15	1.891
402.36	2.235
402.58	-0.000
402.79	-0.000
403.01	-0.000
403.22	-0.000
403.44	-0.000
403.65	-0.000
403.87	-0.000
404.08	-0.000
404.30	-0.000
404.51	-0.000
404.73	-0.000
404.94	-0.000
405.16	-0.000
405.37	-0.000
405.59	-0.000
405.80	-0.000
406.02	-0.000
406.23	-0.000
406.45	-0.000
406.66	-0.000
406.88	-0.000
407.09	-0.000
407.31	-0.000
407.52	1.772
407.74	-0.000
407.95	-0.000
408.17	-0.000
408.38	-0.000
408.60	2.555
408.81	1.576
409.03	1.963
409.24	2.117
409.45	-0.000
409.67	-0.000
409.88	-0.000
410.10	-0.000
410.31	-0.000
410.53	2.459
410.74	1.745
410.96	-0.000
411.17	-0.000
411.39	-0.000
411.60	-0.000
411.82	-0.000
412.03	-0.000
412.24	-0.000
412.46	-0.000
412.67	-0.000
412.89	-0.000
413.10	-0.000
413.32	-0.000
413.53	-0.000
413.75	4.045
413.96	1.958
414.17	1.912
414.39	1.778
414.60	1.977
414.82	2.000
415.03	2.001
415.25	2.491
415.46	1.699
415.68	1.546
415.89	1.617
416.10	1.495
416.32	1.501
416.53	1.347
416.75	1.405
416.96	1.397
417.18	1.346
417.39	1.377
417.60	1.443
417.82	1.378
418.03	1.418
418.25	1.483
418.46	1.681
418.67	1.738
418.89	1.865
419.10	1.527
419.32	1.866
419.53	2.391
419.75	3.234
419.96	1.917
420.17	2.543
420.39	2.270
420.60	-0.000
420.82	-0.000
421.03	-0.000
421.24	-0.000
421.46	-0.000
421.67	-0.000
421.89	-0.000
422.10	-0.000
422.31	-0.000
422.53	-0.000
422.74	-0.000
422.96	-0.000
423.17	-0.000
423.38	-0.000
423.60	-0.000
423.81	-0.000
424.03	2.573
424.24	-0.000
424.45	-0.000
424.67	-0.000
424.88	-0.000
425.09	-0.000
425.31	3.284
425.52	2.450
425.74	-0.000
425.95	2.395
426.16	2.415
426.38	2.663
426.59	2.333
426.80	1.770
427.02	1.712
427.23	1.772
427.45	1.817
427.66	1.879
427.87	2.046
428.09	2.046
428.30	1.948
428.51	2.287
428.73	1.952
428.94	1.735
429.15	1.873
429.37	1.811
429.58	1.848
429.79	1.830
430.01	1.836
430.22	1.557
430.44	1.566
430.65	1.526
430.86	1.529
431.08	1.536
431.29	1.682
431.50	1.647
431.72	1.738
431.93	1.610
432.14	1.626
432.36	1.642
432.57	1.717
432.78	1.631
433.00	1.562
433.21	1.595
433.42	1.585
433.64	1.560
433.85	1.560
434.06	1.556
434.28	1.584
434.49	1.519
434.70	1.543
434.92	1.501
435.13	1.595
435.34	1.500
435.56	1.511
435.77	1.485
435.98	1.492
436.20	1.488
436.41	1.519
436.62	1.464
436.83	1.448
437.05	1.417
437.26	1.376
437.47	1.395
437.69	1.381
437.90	1.412
438.11	1.458
438.33	1.447
438.54	1.447
438.75	1.452
438.97	1.455
439.18	1.449
439.39	1.562
439.60	1.479
439.82	1.545
440.03	1.529
440.24	1.614
440.46	1.585
440.67	1.520
440.88	1.494
441.10	1.514
441.31	1.534
441.52	1.515
441.73	1.641
441.95	1.584
442.16	1.596
442.37	1.633
442.58	1.518
442.80	1.527
443.01	1.540
443.22	1.622
443.44	1.686
443.65	1.730
443.86	1.651
444.07	1.676
444.29	1.654
444.50	1.735
444.71	1.635
444.92	1.669
445.14	1.794
445.35	1.958
445.56	1.759
445.78	1.777
445.99	1.846
446.20	1.785
446.41	1.946
446.63	1.871
446.84	1.780
447.05	1.707
447.26	1.651
447.48	1.588
447.69	1.558
447.90	1.522
448.11	1.504
448.33	1.505
448.54	1.516
448.75	1.544
448.96	1.466
449.18	1.458
449.39	1.499
449.60	1.484
449.81	1.434
450.03	1.510
450.24	1.467
450.45	1.452
450.66	1.447
450.87	1.455
451.09	1.499
451.30	1.531
451.51	1.577
451.72	1.609
451.94	1.612
452.15	1.618
452.36	1.646
452.57	1.712
452.78	1.652
453.00	1.685
453.21	1.646
453.42	1.703
453.63	1.734
453.85	1.702
454.06	1.645
454.27	1.650
454.48	1.680
454.69	1.739
454.91	1.755
455.12	1.731
455.33	1.707
455.54	1.648
455.75	1.622
455.97	1.635
456.18	1.615
456.39	1.657
456.60	1.639
456.81	1.624
457.03	1.570
457.24	1.588
457.45	1.565
457.66	1.598
457.87	1.596
458.09	1.573
458.30	1.561
458.51	1.568
458.72	1.613
458.93	1.547
459.15	1.527
459.36	1.531
459.57	1.533
459.78	1.546
459.99	1.515
460.20	1.523
460.42	1.548
460.63	1.539
460.84	1.565
461.05	1.531
461.26	1.530
461.47	1.541
461.69	1.539
461.90	1.507
462.11	1.472
462.32	1.464
462.53	1.455
462.74	1.442
462.96	1.415
463.17	1.398
463.38	1.414
463.59	1.391
463.80	1.381
464.01	1.365
464.23	1.367
464.44	1.382
464.65	1.365
464.86	1.339
465.07	1.353
465.28	1.345
465.49	1.377
465.71	1.394
465.92	1.401
466.13	1.417
466.34	1.438
466.55	1.448
466.76	1.447
466.97	1.485
467.19	1.477
467.40	1.524
467.61	1.522
467.82	1.514
468.03	1.549
468.24	1.565
468.45	1.562
468.66	1.550
468.88	1.567
469.09	1.575
469.30	1.568
469.51	1.556
469.72	1.557
469.93	1.528
470.14	1.512
470.35	1.536
470.57	1.533
470.78	1.527
470.99	1.549
471.20	1.546
471.41	1.534
471.62	1.556
471.83	1.514
472.04	1.490
472.25	1.486
472.47	1.471
472.68	1.440
472.89	1.439
473.10	1.434
473.31	1.431
473.52	1.422
473.73	1.449
473.94	1.431
474.15	1.413
474.36	1.410
474.57	1.403
474.79	1.390
475.00	1.389
475.21	1.389
475.42	1.370
475.63	1.376
475.84	1.383
476.05	1.374
476.26	1.394
476.47	1.409
476.68	1.412
476.89	1.411
477.10	1.422
477.32	1.425
477.53	1.423
477.74	1.422
477.95	1.419
478.16	1.404
478.37	1.413
478.58	1.411
478.79	1.405
479.00	1.406
479.21	1.400
479.42	1.393
479.63	1.387
479.84	1.391
480.05	1.390
480.26	1.391
480.47	1.387
480.69	1.383
480.90	1.393
481.11	1.399
481.32	1.403
481.53	1.403
481.74	1.405
481.95	1.413
482.16	1.411
482.37	1.416
482.58	1.406
482.79	1.407
483.00	1.415
483.21	1.425
483.42	1.421
483.63	1.418
483.84	1.427
484.05	1.430
484.26	1.444
484.47	1.438
484.68	1.433
484.89	1.438
485.10	1.437
485.31	1.428
485.52	1.420
485.73	1.413
485.94	1.417
486.15	1.419
486.37	1.414
486.58	1.421
486.79	1.418
487.00	1.433
487.21	1.442
487.42	1.436
487.63	1.436
487.84	1.436
488.05	1.439
488.26	1.431
488.47	1.434
488.68	1.422
488.89	1.418
489.10	1.407
489.31	1.408
489.52	1.406
489.73	1.408
489.94	1.413
490.15	1.424
490.36	1.421
490.57	1.416
490.78	1.424
490.99	1.419
491.20	1.420
491.41	1.414
491.62	1.407
491.83	1.420
492.04	1.416
492.25	1.418
492.45	1.416
492.66	1.421
492.87	1.415
493.08	1.414
493.29	1.419
493.50	1.423
493.71	1.430
493.92	1.433
494.13	1.428
494.34	1.424
494.55	1.413
494.76	1.412
494.97	1.422
495.18	1.416
495.39	1.409
495.60	1.412
495.81	1.411
496.02	1.409
496.23	1.405
496.44	1.408
496.65	1.407
496.86	1.410
497.07	1.403
497.28	1.406
497.49	1.405
497.70	1.408
497.91	1.412
498.12	1.411
498.32	1.404
498.53	1.410
498.74	1.416
498.95	1.417
499.16	1.427
499.37	1.419
499.58	1.423
499.79	1.430
500.00	1.435
500.21	1.438
500.42	1.429
500.63	1.429
500.84	1.425
501.05	1.427
501.26	1.434
501.46	1.440
501.67	1.441
501.88	1.450
502.09	1.446
502.30	1.450
502.51	1.449
502.72	1.463
502.93	1.462
503.14	1.455
503.35	1.464
503.56	1.455
503.77	1.457
503.97	1.456
504.18	1.458
504.39	1.459
504.60	1.466
504.81	1.477
505.02	1.472
505.23	1.482
505.44	1.484
505.65	1.474
505.86	1.480
506.07	1.484
506.27	1.490
506.48	1.489
506.69	1.480
506.90	1.480
507.11	1.483
507.32	1.480
507.53	1.491
507.74	1.495
507.95	1.499
508.15	1.504
508.36	1.496
508.57	1.496
508.78	1.496
508.99	1.493
509.20	1.487
509.41	1.488
509.62	1.489
509.82	1.489
510.03	1.493
510.24	1.491
510.45	1.493
510.66	1.487
510.87	1.489
511.08	1.494
511.29	1.505
511.49	1.494
511.70	1.496
511.91	1.495
512.12	1.487
512.33	1.492
512.54	1.488
512.75	1.494
512.95	1.498
513.16	1.490
513.37	1.492
513.58	1.499
513.79	1.503
514.00	1.498
514.20	1.497
514.41	1.490
514.62	1.491
514.83	1.486
515.04	1.484
515.25	1.484
515.46	1.486
515.66	1.478
515.87	1.486
516.08	1.483
516.29	1.479
516.50	1.486
516.71	1.487
516.91	1.491
517.12	1.489
517.33	1.489
517.54	1.496
517.75	1.495
517.95	1.502
518.16	1.503
518.37	1.500
518.58	1.505
518.79	1.517
519.00	1.515
519.20	1.520
519.41	1.520
519.62	1.526
519.83	1.529
520.04	1.529
520.24	1.524
520.45	1.532
520.66	1.539
520.87	1.537
521.08	1.538
521.28	1.540
521.49	1.543
521.70	1.542
521.91	1.539
522.12	1.539
522.32	1.540
522.53	1.541
522.74	1.546
522.95	1.543
523.16	1.536
523.36	1.533
523.57	1.532
523.78	1.527
523.99	1.522
524.20	1.517
524.40	1.520
524.61	1.524
524.82	1.521
525.03	1.519
525.23	1.520
525.44	1.518
525.65	1.517
525.86	1.521
526.06	1.518
526.27	1.519
526.48	1.521
526.69	1.522
526.90	1.518
527.10	1.517
527.31	1.516
527.52	1.519
527.73	1.518
527.93	1.522
528.14	1.533
528.35	1.534
528.56	1.536
528.76	1.539
528.97	1.539
529.18	1.535
529.39	1.535
529.59	1.534
529.80	1.522
530.01	1.522
530.22	1.521
530.42	1.521
530.63	1.524
530.84	1.523
531.05	1.518
531.25	1.524
531.46	1.523
531.67	1.524
531.88	1.526
532.08	1.534
532.29	1.531
532.50	1.525
532.70	1.527
532.91	1.526
533.12	1.524
533.33	1.526
533.53	1.525
533.74	1.524
533.95	1.523
534.15	1.527
534.36	1.525
534.57	1.529
534.78	1.534
534.98	1.529
535.19	1.525
535.40	1.519
535.60	1.515
535.81	1.516
536.02	1.521
536.23	1.523
536.43	1.521
536.64	1.523
536.85	1.523
537.05	1.521
537.26	1.524
537.47	1.520
537.67	1.512
537.88	1.519
538.09	1.518
538.30	1.520
538.50	1.524
538.71	1.529
538.92	1.526
539.12	1.524
539.33	1.524
539.54	1.522
539.74	1.525
539.95	1.530
540.16	1.529
540.36	1.528
540.57	1.528
540.78	1.524
540.98	1.523
541.19	1.524
541.40	1.523
541.60	1.518
541.81	1.518
542.02	1.517
542.22	1.515
542.43	1.517
542.64	1.514
542.84	1.517
543.05	1.515
543.26	1.520
543.46	1.519
543.67	1.524
543.88	1.525
544.08	1.525
544.29	1.519
544.50	1.522
544.70	1.516
544.91	1.510
545.12	1.511
545.32	1.509
545.53	1.508
545.74	1.512
545.94	1.515
546.15	1.516
546.35	1.522
546.56	1.519
546.77	1.521
546.97	1.523
547.18	1.520
547.39	1.519
547.59	1.512
547.80	1.513
548.01	1.510
548.21	1.511
548.42	1.510
548.62	1.515
548.83	1.512
549.04	1.519
549.24	1.521
549.45	1.526
549.65	1.522
549.86	1.515
550.07	1.513
550.27	1.511
550.48	1.509
550.69	1.509
550.89	1.513
551.10	1.506
551.30	1.504
551.51	1.503
551.72	1.508
551.92	1.508
552.13	1.508
552.33	1.509
552.54	1.509
552.75	1.512
552.95	1.512
553.16	1.510
553.36	1.505
553.57	1.501
553.78	1.499
553.98	1.505
554.19	1.513
554.39	1.516
554.60	1.516
554.80	1.517
555.01	1.518
555.22	1.513
555.42	1.518
555.63	1.521
555.83	1.526
556.04	1.522
556.25	1.521
556.45	1.519
556.66	1.519
556.86	1.515
557.07	1.513
557.27	1.515
557.48	1.516
557.68	1.516
557.89	1.524
558.10	1.524
558.30	1.519
558.51	1.517
558.71	1.512
558.92	1.514
559.12	1.518
559.33	1.518
559.54	1.518
559.74	1.513
559.95	1.509
560.15	1.507
560.36	1.503
560.56	1.502
560.77	1.502
560.97	1.498
561.18	1.502
561.38	1.502
561.59	1.499
561.79	1.502
562.00	1.502
562.21	1.500
562.41	1.498
562.62	1.498
562.82	1.499
563.03	1.499
563.23	1.494
563.44	1.490
563.64	1.489
563.85	1.492
564.05	1.493
564.26	1.495
564.46	1.496
564.67	1.498
564.87	1.497
565.08	1.498
565.28	1.501
565.49	1.500
565.69	1.499
565.90	1.500
566.10	1.496
566.31	1.497
566.51	1.494
566.72	1.491
566.92	1.491
567.13	1.488
567.33	1.488
567.54	1.494
567.74	1.493
567.95	1.492
568.15	1.489
568.36	1.494
568.56	1.493
568.77	1.495
568.97	1.493
569.18	1.497
569.38	1.498
569.59	1.498
569.79	1.498
570.00	1.499
570.20	1.502
570.41	1.502
570.61	1.499
570.82	1.502
571.02	1.508
571.23	1.506
571.43	1.510
571.64	1.510
571.84	1.507
572.05	1.508
572.25	1.506
572.45	1.505
572.66	1.502
572.86	1.500
573.07	1.495
573.27	1.495
573.48	1.493
573.68	1.493
573.89	1.490
574.09	1.486
574.30	1.485
574.50	1.479
574.70	1.479
574.91	1.480
575.11	1.479
575.32	1.476
575.52	1.477
575.73	1.476
575.93	1.477
576.14	1.473
576.34	1.473
576.54	1.477
576.75	1.475
576.95	1.475
577.16	1.476
577.36	1.474
577.57	1.474
577.77	1.472
577.97	1.470
578.18	1.474
578.38	1.474
578.59	1.472
578.79	1.475
579.00	1.473
579.20	1.476
579.40	1.476
579.61	1.476
579.81	1.476
580.02	1.474
580.22	1.473
580.42	1.474
580.63	1.473
580.83	1.471
581.04	1.471
581.24	1.468
581.45	1.464
581.65	1.468
581.85	1.469
582.06	1.473
582.26	1.472
582.47	1.469
582.67	1.470
582.87	1.468
583.08	1.466
583.28	1.467
583.48	1.467
583.69	1.467
583.89	1.467
584.10	1.467
584.30	1.470
584.50	1.469
584.71	1.472
584.91	1.471
585.12	1.469
585.32	1.471
585.52	1.476
585.73	1.481
585.93	1.475
586.13	1.475
586.34	1.472
586.54	1.474
586.75	1.479
586.95	1.480
587.15	1.485
587.36	1.488
587.56	1.485
587.76	1.484
587.97	1.481
588.17	1.482
588.37	1.482
588.58	1.477
588.78	1.480
588.98	1.479
589.19	1.481
589.39	1.483
589.60	1.481
589.80	1.477
590.00	1.477
590.21	1.481
590.41	1.478
590.61	1.477
590.82	1.477
591.02	1.471
591.22	1.470
591.43	1.471
591.63	1.471
591.83	1.473
592.04	1.472
592.24	1.473
592.44	1.475
592.65	1.477
592.85	1.479
593.05	1.476
593.26	1.476
593.46	1.472
593.66	1.474
593.86	1.475
594.07	1.477
594.27	1.475
594.47	1.473
594.68	1.478
594.88	1.479
595.08	1.476
595.29	1.478
595.49	1.479
595.69	1.476
595.90	1.474
596.10	1.474
596.30	1.473
596.50	1.473
596.71	1.471
596.91	1.471
597.11	1.470
597.32	1.470
597.52	1.471
597.72	1.474
597.93	1.473
598.13	1.474
598.33	1.474
598.53	1.474
598.74	1.473
598.94	1.469
599.14	1.469
599.35	1.471
599.55	1.471
599.75	1.472
599.95	1.472
600.16	1.472
600.36	1.471
600.56	1.472
600.76	1.475
600.97	1.475
601.17	1.472
601.37	1.474
601.58	1.475
601.78	1.474
601.98	1.475
602.18	1.475
602.39	1.472
602.59	1.472
602.79	1.474
602.99	1.474
603.20	1.476
603.40	1.475
603.60	1.476
603.80	1.477
604.01	1.476
604.21	1.476
604.41	1.478
604.61	1.480
604.82	1.482
605.02	1.478
605.22	1.478
605.42	1.480
605.62	1.479
605.83	1.477
606.03	1.482
606.23	1.482
606.43	1.482
606.64	1.485
606.84	1.485
607.04	1.483
607.24	1.484
607.45	1.484
607.65	1.485
607.85	1.482
608.05	1.482
608.25	1.479
608.46	1.481
608.66	1.480
608.86	1.480
609.06	1.479
609.26	1.483
609.47	1.483
609.67	1.484
609.87	1.481
610.07	1.482
610.28	1.479
610.48	1.473
610.68	1.471
610.88	1.470
611.08	1.470
611.29	1.470
611.49	1.470
611.69	1.472
611.89	1.472
612.09	1.471
612.29	1.472
612.50	1.474
612.70	1.472
612.90	1.471
613.10	1.468
613.30	1.466
613.51	1.465
613.71	1.466
613.91	1.465
614.11	1.466
614.31	1.465
614.51	1.466
614.72	1.471
614.92	1.472
615.12	1.474
615.32	1.473
615.52	1.474
615.72	1.474
615.93	1.471
616.13	1.472
616.33	1.475
616.53	1.474
616.73	1.473
616.93	1.475
617.14	1.471
617.34	1.472
617.54	1.474
617.74	1.475
617.94	1.473
618.14	1.473
618.34	1.474
618.55	1.475
618.75	1.478
618.95	1.475
619.15	1.476
619.35	1.477
619.55	1.479
619.75	1.478
619.96	1.478
620.16	1.479
620.36	1.478
620.56	1.477
620.76	1.475
620.96	1.478
621.16	1.479
621.36	1.483
621.57	1.482
621.77	1.481
621.97	1.480
622.17	1.480
622.37	1.481
622.57	1.483
622.77	1.485
622.97	1.484
623.18	1.485
623.38	1.484
623.58	1.480
623.78	1.481
623.98	1.482
624.18	1.481
624.38	1.480
624.58	1.480
624.78	1.480
624.98	1.476
625.19	1.474
625.39	1.474
625.59	1.473
625.79	1.476
625.99	1.476
626.19	1.476
626.39	1.474
626.59	1.476
626.79	1.476
626.99	1.476
627.19	1.477
627.40	1.478
627.60	1.477
627.80	1.479
628.00	1.477
628.20	1.480
628.40	1.479
628.60	1.476
628.80	1.478
629.00	1.478
629.20	1.483
629.40	1.486
629.60	1.486
629.80	1.489
630.00	1.487
630.20	1.487
630.41	1.485
630.61	1.486
630.81	1.485
631.01	1.482
631.21	1.482
631.41	1.480
631.61	1.479
631.81	1.481
632.01	1.480
632.21	1.482
632.41	1.481
632.61	1.482
632.81	1.486
633.01	1.486
633.21	1.486
633.41	1.486
633.61	1.484
633.81	1.484
634.01	1.483
634.21	1.484
634.41	1.482
634.61	1.483
634.81	1.483
635.01	1.482
635.22	1.480
635.42	1.481
635.62	1.481
635.82	1.482
636.02	1.478
636.22	1.481
636.42	1.479
636.62	1.480
636.82	1.480
637.02	1.479
637.22	1.480
637.42	1.482
637.62	1.479
637.82	1.480
638.02	1.478
638.22	1.477
638.42	1.479
638.62	1.480
638.82	1.480
639.02	1.481
639.22	1.481
639.42	1.485
639.62	1.483
639.82	1.485
640.02	1.484
640.22	1.486
640.42	1.483
640.62	1.482
640.82	1.480
641.02	1.482
641.22	1.481
641.42	1.481
641.61	1.479
641.81	1.482
642.01	1.481
642.21	1.481
642.41	1.486
642.61	1.484
642.81	1.486
643.01	1.487
643.21	1.486
643.41	1.488
643.61	1.488
643.81	1.488
644.01	1.486
644.21	1.488
644.41	1.488
644.61	1.490
644.81	1.490
645.01	1.491
645.21	1.493
645.41	1.494
645.61	1.496
645.81	1.498
646.01	1.498
646.21	1.499
646.40	1.503
646.60	1.498
646.80	1.498
647.00	1.498
647.20	1.495
647.40	1.496
647.60	1.495
647.80	1.495
648.00	1.496
648.20	1.498
648.40	1.496
648.60	1.497
648.80	1.497
649.00	1.497
649.20	1.496
649.39	1.494
649.59	1.491
649.79	1.488
649.99	1.488
650.19	1.487
650.39	1.490
650.59	1.488
650.79	1.489
650.99	1.489
651.19	1.488
651.39	1.489
651.58	1.489
651.78	1.488
651.98	1.488
652.18	1.487
652.38	1.487
652.58	1.489
652.78	1.488
652.98	1.489
653.18	1.492
653.38	1.496
653.57	1.497
653.77	1.501
653.97	1.501
654.17	1.499
654.37	1.499
654.57	1.499
654.77	1.499
654.97	1.501
655.16	1.502
655.36	1.503
655.56	1.502
655.76	1.502
655.96	1.503
656.16	1.502
656.36	1.503
656.56	1.503
656.75	1.501
656.95	1.503
657.15	1.502
657.35	1.499
657.55	1.497
657.75	1.497
657.95	1.494
658.14	1.496
658.34	1.494
658.54	1.494
658.74	1.492
658.94	1.491
659.14	1.490
659.34	1.490
659.53	1.490
659.73	1.493
659.93	1.495
660.13	1.497
660.33	1.498
660.53	1.500
660.72	1.501
660.92	1.501
661.12	1.498
661.32	1.499
661.52	1.499
661.72	1.499
661.91	1.499
662.11	1.499
662.31	1.499
662.51	1.499
662.71	1.497
662.90	1.499
663.10	1.501
663.30	1.503
663.50	1.501
663.70	1.503
663.90	1.501
664.09	1.497
664.29	1.496
664.49	1.497
664.69	1.494
664.89	1.494
665.08	1.493
665.28	1.496
665.48	1.495
665.68	1.496
665.88	1.496
666.07	1.497
666.27	1.497
666.47	1.498
666.67	1.500
666.87	1.500
667.06	1.499
667.26	1.498
667.46	1.497
667.66	1.497
667.85	1.495
668.05	1.497
668.25	1.498
668.45	1.497
668.65	1.497
668.84	1.498
669.04	1.501
669.24	1.503
669.44	1.503
669.63	1.504
669.83	1.507
670.03	1.508
670.23	1.507
670.42	1.506
670.62	1.504
670.82	1.503
671.02	1.504
671.22	1.505
671.41	1.504
671.61	1.505
671.81	1.508
672.01	1.509
672.20	1.508
672.40	1.508
672.60	1.510
672.80	1.509
672.99	1.507
673.19	1.506
673.39	1.507
673.58	1.504
673.78	1.504
673.98	1.502
674.18	1.502
674.37	1.504
674.57	1.505
674.77	1.506
674.97	1.510
675.16	1.511
675.36	1.510
675.56	1.511
675.75	1.509
675.95	1.507
676.15	1.507
676.35	1.507
676.54	1.506
676.74	1.506
676.94	1.507
677.13	1.509
677.33	1.507
677.53	1.506
677.73	1.510
677.92	1.509
678.12	1.508
678.32	1.504
678.51	1.500
678.71	1.501
678.91	1.502
679.11	1.501
679.30	1.502
679.50	1.503
679.70	1.506
679.89	1.506
680.09	1.507
680.29	1.508
680.48	1.511
680.68	1.513
680.88	1.512
681.07	1.511
681.27	1.511
681.47	1.510
681.66	1.512
681.86	1.511
682.06	1.512
682.25	1.513
682.45	1.515
682.65	1.518
682.84	1.517
683.04	1.514
683.24	1.514
683.43	1.514
683.63	1.514
683.83	1.514
684.02	1.515
684.22	1.516
684.42	1.514
684.61	1.513
684.81	1.512
685.01	1.513
685.20	1.513
685.40	1.513
685.60	1.517
685.79	1.513
685.99	1.514
686.19	1.514
686.38	1.516
686.58	1.515
686.77	1.516
686.97	1.516
687.17	1.516
687.36	1.516
687.56	1.517
687.76	1.515
687.95	1.511
688.15	1.509
688.34	1.507
688.54	1.508
688.74	1.509
688.93	1.509
689.13	1.512
689.33	1.512
689.52	1.514
689.72	1.512
689.91	1.516
690.11	1.515
690.31	1.514
690.50	1.514
690.70	1.514
690.89	1.515
691.09	1.516
691.29	1.518
691.48	1.517
691.68	1.516
691.87	1.516
692.07	1.519
692.27	1.519
692.46	1.518
692.66	1.520
692.85	1.520
693.05	1.522
693.25	1.518
693.44	1.518
693.64	1.518
693.83	1.519
694.03	1.519
694.22	1.519
694.42	1.519
694.62	1.520
694.81	1.523
695.01	1.521
695.20	1.522
695.40	1.523
695.59	1.522
695.79	1.524
695.99	1.527
696.18	1.530
696.38	1.529
696.57	1.532
696.77	1.529
696.96	1.530
697.16	1.530
697.36	1.531
697.55	1.531
697.75	1.530
697.94	1.531
698.14	1.529
698.33	1.529
698.53	1.530
698.72	1.527
698.92	1.524
699.11	1.524
699.31	1.523
699.51	1.519
699.70	1.518
699.90	1.517
700.09	1.515
700.29	1.513
700.48	1.514
700.68	1.512
700.87	1.512
701.07	1.513
701.26	1.513
701.46	1.515
701.65	1.515
701.85	1.515
702.04	1.514
702.24	1.514
702.43	1.515
702.63	1.515
702.82	1.516
703.02	1.518
703.21	1.519
703.41	1.520
703.60	1.524
703.80	1.525
703.99	1.526
704.19	1.526
704.38	1.528
704.58	1.530
704.77	1.531
704.97	1.532
705.16	1.531
705.36	1.530
705.55	1.528
705.75	1.527
705.94	1.528
706.14	1.532
706.33	1.532
706.53	1.531
706.72	1.528
706.92	1.530
707.11	1.530
707.31	1.530
707.50	1.529
707.70	1.527
707.89	1.526
708.09	1.525
708.28	1.528
708.48	1.527
708.67	1.524
708.86	1.524
709.06	1.522
709.25	1.521
709.45	1.521
709.64	1.521
709.84	1.523
710.03	1.521
710.23	1.518
710.42	1.517
710.62	1.520
710.81	1.521
711.00	1.520
711.20	1.522
711.39	1.524
711.59	1.525
711.78	1.526
711.98	1.527
712.17	1.527
712.37	1.528
712.56	1.529
712.75	1.531
712.95	1.530
713.14	1.532
713.34	1.534
713.53	1.533
713.73	1.536
713.92	1.537
714.11	1.541
714.31	1.544
714.50	1.547
714.70	1.546
714.89	1.546
715.08	1.547
715.28	1.546
715.47	1.545
715.67	1.547
715.86	1.545
716.06	1.546
716.25	1.545
716.44	1.544
716.64	1.542
716.83	1.543
717.03	1.544
717.22	1.544
717.41	1.544
717.61	1.544
717.80	1.543
717.99	1.542
718.19	1.537
718.38	1.533
718.58	1.530
718.77	1.529
718.96	1.529
719.16	1.530
719.35	1.529
719.55	1.529
719.74	1.528
719.93	1.529
720.13	1.531
720.32	1.533
720.51	1.535
720.71	1.535
720.90	1.534
721.10	1.532
721.29	1.531
721.48	1.531
721.68	1.532
721.87	1.532
722.06	1.533
722.26	1.536
722.45	1.537
722.64	1.538
722.84	1.538
723.03	1.540
723.22	1.539
723.42	1.541
723.61	1.538
723.80	1.538
724.00	1.539
724.19	1.537
724.38	1.537
724.58	1.536
724.77	1.536
724.96	1.537
725.16	1.538
725.35	1.538
725.54	1.541
725.74	1.541
725.93	1.540
726.12	1.541
726.32	1.542
726.51	1.543
726.70	1.545
726.90	1.545
727.09	1.542
727.28	1.546
727.48	1.544
727.67	1.546
727.86	1.546
728.06	1.544
728.25	1.546
728.44	1.544
728.64	1.544
728.83	1.544
729.02	1.543
729.21	1.544
729.41	1.546
729.60	1.541
729.79	1.541
729.99	1.542
730.18	1.539
730.37	1.539
730.56	1.538
730.76	1.540
730.95	1.539
731.14	1.541
731.34	1.536
731.53	1.536
731.72	1.539
731.91	1.539
732.11	1.542
732.30	1.544
732.49	1.544
732.69	1.542
732.88	1.544
733.07	1.543
733.26	1.545
733.46	1.546
733.65	1.549
733.84	1.546
734.03	1.543
734.23	1.546
734.42	1.544
734.61	1.544
734.80	1.539
735.00	1.540
735.19	1.539
735.38	1.541
735.57	1.543
735.77	1.543
735.96	1.543
736.15	1.541
736.34	1.537
736.54	1.535
736.73	1.535
736.92	1.535
737.11	1.537
737.31	1.535
737.50	1.533
737.69	1.533
737.88	1.535
738.07	1.537
738.27	1.538
738.46	1.543
738.65	1.545
738.84	1.548
739.04	1.550
739.23	1.550
739.42	1.549
739.61	1.549
739.80	1.549
740.00	1.551
740.19	1.550
740.38	1.552
740.57	1.555
740.76	1.557
740.96	1.556
741.15	1.556
741.34	1.556
741.53	1.555
741.72	1.556
741.92	1.557
742.11	1.560
742.30	1.557
742.49	1.557
742.68	1.557
742.88	1.556
743.07	1.553
743.26	1.552
743.45	1.550
743.64	1.551
743.84	1.550
744.03	1.546
744.22	1.549
744.41	1.549
744.60	1.548
744.79	1.549
744.99	1.548
745.18	1.547
745.37	1.548
745.56	1.549
745.75	1.547
745.94	1.548
746.14	1.546
746.33	1.547
746.52	1.544
746.71	1.545
746.90	1.543
747.09	1.543
747.28	1.545
747.48	1.547
747.67	1.546
747.86	1.545
748.05	1.546
748.24	1.545
748.43	1.546
748.62	1.548
748.82	1.547
749.01	1.548
749.20	1.547
749.39	1.546
749.58	1.544
749.77	1.545
749.96	1.543
750.16	1.546
750.35	1.545
750.54	1.544
750.73	1.540
750.92	1.542
751.11	1.542
751.30	1.543
751.49	1.543
751.68	1.541
751.88	1.543
752.07	1.544
752.26	1.545
752.45	1.544
752.64	1.542
752.83	1.542
753.02	1.542
753.21	1.543
753.40	1.541
753.60	1.545
753.79	1.544
753.98	1.547
754.17	1.544
754.36	1.544
754.55	1.545
754.74	1.545
754.93	1.545
755.12	1.548
755.31	1.547
755.50	1.548
755.70	1.548
755.89	1.548
756.08	1.548
756.27	1.548
756.46	1.548
756.65	1.549
756.84	1.549
757.03	1.548
757.22	1.550
757.41	1.553
757.60	1.551
757.79	1.552
757.98	1.551
758.17	1.550
758.36	1.552
758.56	1.552
758.75	1.555
758.94	1.554
759.13	1.553
759.32	1.553
759.51	1.553
759.70	1.552
759.89	1.552
760.08	1.551
760.27	1.552
760.46	1.554
760.65	1.554
760.84	1.554
761.03	1.556
761.22	1.554
761.41	1.552
761.60	1.550
761.79	1.551
761.98	1.547
762.17	1.549
762.36	1.549
762.55	1.550
762.74	1.551
762.93	1.549
763.12	1.548
763.31	1.549
763.50	1.549
763.69	1.551
763.88	1.551
764.07	1.552
764.26	1.552
764.45	1.551
764.64	1.550
764.83	1.550
765.02	1.551
765.21	1.552
765.40	1.552
765.59	1.555
765.78	1.555
765.97	1.556
766.16	1.554
766.35	1.554
766.54	1.555
766.73	1.554
766.92	1.557
767.11	1.559
767.30	1.555
767.49	1.556
767.68	1.554
767.87	1.556
768.06	1.555
768.25	1.555
768.44	1.553
768.63	1.555
768.82	1.555
769.01	1.553
769.20	1.553
769.39	1.555
769.58	1.554
769.77	1.555
769.96	1.556
770.15	1.556
770.34	1.556
770.53	1.557
770.72	1.557
770.91	1.557
771.10	1.555
771.29	1.559
771.47	1.559
771.66	1.560
771.85	1.556
772.04	1.559
772.23	1.558
772.42	1.562
772.61	1.561
772.80	1.560
772.99	1.560
773.18	1.559
773.37	1.558
773.56	1.559
773.75	1.559
773.94	1.562
774.13	1.561
774.31	1.560
774.50	1.558
774.69	1.560
774.88	1.559
775.07	1.558
775.26	1.555
775.45	1.554
775.64	1.554
775.83	1.558
776.02	1.558
776.21	1.558
776.40	1.554
776.58	1.554
776.77	1.556
776.96	1.559
777.15	1.559
777.34	1.561
777.53	1.560
777.72	1.559
777.91	1.559
778.10	1.562
778.28	1.562
778.47	1.565
778.66	1.560
778.85	1.561
779.04	1.561
779.23	1.563
779.42	1.563
779.61	1.561
779.79	1.562
779.98	1.558
780.17	1.559
780.36	1.559
780.55	1.561
780.74	1.560
780.93	1.558
781.12	1.560
781.30	1.560
781.49	1.560
781.68	1.558
781.87	1.557
782.06	1.555
782.25	1.557
782.44	1.555
782.62	1.558
782.81	1.560
783.00	1.562
783.19	1.564
783.38	1.565
783.57	1.567
783.75	1.565
783.94	1.567
784.13	1.567
784.32	1.567
784.51	1.566
784.70	1.565
784.88	1.563
785.07	1.561
785.26	1.558
785.45	1.560
785.64	1.561
785.83	1.559
786.01	1.559
786.20	1.559
786.39	1.561
786.58	1.559
786.77	1.558
786.95	1.557
787.14	1.553
787.33	1.553
787.52	1.553
787.71	1.552
787.90	1.551
788.08	1.553
788.27	1.554
788.46	1.553
788.65	1.553
788.84	1.554
789.02	1.554
789.21	1.555
789.40	1.553
789.59	1.553
789.77	1.555
789.96	1.555
790.15	1.552
790.34	1.550
790.53	1.552
790.71	1.552
790.90	1.552
791.09	1.555
791.28	1.555
791.46	1.557
791.65	1.557
791.84	1.560
792.03	1.558
792.22	1.558
792.40	1.559
792.59	1.561
792.78	1.562
792.97	1.565
793.15	1.568
793.34	1.567
793.53	1.569
793.72	1.569
793.90	1.568
794.09	1.571
794.28	1.573
794.47	1.571
794.65	1.570
794.84	1.570
795.03	1.569
795.22	1.570
795.40	1.568
795.59	1.569
795.78	1.569
795.97	1.568
796.15	1.567
796.34	1.568
796.53	1.569
796.71	1.571
796.90	1.570
797.09	1.568
797.28	1.571
797.46	1.568
797.65	1.569
797.84	1.571
798.02	1.570
798.21	1.567
798.40	1.570
798.59	1.572
798.77	1.571
798.96	1.570
799.15	1.567
799.33	1.571
799.52	1.571
799.71	1.569
799.90	1.571
800.08	1.572
800.27	1.572
800.46	1.573
800.64	1.571
800.83	1.568
801.02	1.569
801.20	1.567
801.39	1.569
801.58	1.567
801.76	1.565
801.95	1.565
802.14	1.566
802.32	1.565
802.51	1.565
802.70	1.566
802.88	1.567
803.07	1.566
803.26	1.566
803.44	1.565
803.63	1.568
803.82	1.568
804.00	1.568
804.19	1.568
804.38	1.567
804.56	1.569
804.75	1.570
804.94	1.570
805.12	1.568
805.31	1.570
805.50	1.571
805.68	1.570
805.87	1.569
806.06	1.568
806.24	1.569
806.43	1.569
806.62	1.570
806.80	1.572
806.99	1.574
807.17	1.573
807.36	1.573
807.55	1.572
807.73	1.571
807.92	1.570
808.11	1.571
808.29	1.568
808.48	1.568
808.66	1.567
808.85	1.565
809.04	1.567
809.22	1.565
809.41	1.566
809.59	1.567
809.78	1.569
809.97	1.569
810.15	1.569
810.34	1.568
810.53	1.567
810.71	1.565
810.90	1.563
811.08	1.562
811.27	1.562
811.45	1.559
811.64	1.559
811.83	1.560
812.01	1.559
812.20	1.558
812.38	1.558
812.57	1.561
812.76	1.563
812.94	1.562
813.13	1.562
813.31	1.561
813.50	1.562
813.68	1.563
813.87	1.563
814.06	1.564
814.24	1.565
814.43	1.564
814.61	1.563
814.80	1.564
814.98	1.565
815.17	1.567
815.36	1.568
815.54	1.567
815.73	1.564
815.91	1.564
816.10	1.563
816.28	1.560
816.47	1.559
816.65	1.559
816.84	1.561
817.03	1.563
817.21	1.564
817.40	1.562
817.58	1.561
817.77	1.562
817.95	1.560
818.14	1.557
818.32	1.559
818.51	1.559
818.69	1.561
818.88	1.561
819.06	1.560
819.25	1.561
819.43	1.564
819.62	1.564
819.80	1.566
819.99	1.568
820.18	1.572
820.36	1.573
820.55	1.573
820.73	1.571
820.92	1.571
821.10	1.571
821.29	1.572
821.47	1.572
821.66	1.573
821.84	1.574
822.03	1.574
822.21	1.573
822.40	1.574
822.58	1.573
822.77	1.571
822.95	1.572
823.14	1.572
823.32	1.571
823.50	1.573
823.69	1.571
823.87	1.570
824.06	1.567
824.24	1.566
824.43	1.567
824.61	1.567
824.80	1.566
824.98	1.564
825.17	1.566
825.35	1.568
825.54	1.566
825.72	1.568
825.91	1.570
826.09	1.571
826.28	1.571
826.46	1.571
826.64	1.574
826.83	1.575
827.01	1.574
827.20	1.576
827.38	1.577
827.57	1.577
827.75	1.578
827.94	1.580
828.12	1.580
828.31	1.580
828.49	1.580
828.67	1.578
828.86	1.581
829.04	1.578
829.23	1.574
829.41	1.574
829.60	1.573
829.78	1.573
829.96	1.572
830.15	1.572
830.33	1.574
830.52	1.574
830.70	1.572
830.88	1.573
831.07	1.575
831.25	1.574
831.44	1.577
831.62	1.577
831.81	1.578
831.99	1.579
832.17	1.577
832.36	1.577
832.54	1.576
832.73	1.576
832.91	1.577
833.09	1.581
833.28	1.581
833.46	1.585
833.65	1.586
833.83	1.585
834.01	1.585
834.20	1.584
834.38	1.582
834.56	1.583
834.75	1.583
834.93	1.580
835.12	1.581
835.30	1.581
835.48	1.582
835.67	1.580
835.85	1.583
836.03	1.583
836.22	1.585
836.40	1.586
836.59	1.586
836.77	1.582
836.95	1.582
837.14	1.581
837.32	1.580
837.50	1.580
837.69	1.580
837.87	1.580
838.05	1.581
838.24	1.579
838.42	1.580
838.60	1.581
838.79	1.580
838.97	1.577
839.15	1.576
839.34	1.575
839.52	1.575
839.70	1.573
839.89	1.572
840.07	1.571
840.25	1.572
840.44	1.575
840.62	1.578
840.80	1.577
840.99	1.578
841.17	1.579
841.35	1.577
841.54	1.577
841.72	1.578
841.90	1.575
842.09	1.575
842.27	1.577
842.45	1.578
842.64	1.578
842.82	1.580
843.00	1.578
843.19	1.579
843.37	1.580
843.55	1.581
843.73	1.581
843.92	1.580
844.10	1.582
844.28	1.580
844.47	1.581
844.65	1.579
844.83	1.577
845.01	1.574
845.20	1.574
845.38	1.575
845.56	1.575
845.75	1.576
845.93	1.579
846.11	1.576
846.29	1.575
846.48	1.576
846.66	1.574
846.84	1.575
847.02	1.575
847.21	1.574
847.39	1.571
847.57	1.574
847.76	1.576
847.94	1.575
848.12	1.573
848.30	1.575
848.49	1.575
848.67	1.576
848.85	1.578
849.03	1.579
849.22	1.578
849.40	1.578
849.58	1.579
849.76	1.576
849.95	1.574
850.13	1.574
850.31	1.573
850.49	1.574
850.67	1.574
850.86	1.576
851.04	1.577
851.22	1.578
851.40	1.577
851.59	1.575
851.77	1.574
851.95	1.575
852.13	1.572
852.31	1.574
852.50	1.574
852.68	1.574
852.86	1.573
853.04	1.572
853.23	1.572
853.41	1.573
853.59	1.572
853.77	1.574
853.95	1.577
854.14	1.577
854.32	1.576
854.50	1.579
854.68	1.576
854.86	1.577
855.04	1.578
855.23	1.577
855.41	1.577
855.59	1.577
855.77	1.577
855.95	1.580
856.14	1.580
856.32	1.582
856.50	1.582
856.68	1.584
856.86	1.585
857.04	1.586
857.23	1.583
857.41	1.585
857.59	1.584
857.77	1.579
857.95	1.581
858.13	1.583
858.32	1.579
858.50	1.580
858.68	1.579
858.86	1.582
859.04	1.584
859.22	1.587
859.41	1.586
859.59	1.588
859.77	1.587
859.95	1.586
860.13	1.584
860.31	1.584
860.49	1.583
860.68	1.583
860.86	1.584
861.04	1.589
861.22	1.588
861.40	1.589
861.58	1.591
861.76	1.593
861.94	1.592
862.13	1.596
862.31	1.599
862.49	1.599
862.67	1.598
862.85	1.596
863.03	1.593
863.21	1.595
863.39	1.593
863.57	1.593
863.76	1.594
863.94	1.592
864.12	1.592
864.30	1.592
864.48	1.590
864.66	1.590
864.84	1.589
865.02	1.591
865.20	1.591
865.38	1.593
865.57	1.590
865.75	1.592
865.93	1.590
866.11	1.585
866.29	1.586
866.47	1.584
866.65	1.585
866.83	1.586
867.01	1.587
867.19	1.584
867.37	1.584
867.55	1.586
867.73	1.587
867.92	1.589
868.10	1.591
868.28	1.594
868.46	1.592
868.64	1.589
868.82	1.587
869.00	1.586
869.18	1.584
869.36	1.583
869.54	1.582
869.72	1.582
869.90	1.586
870.08	1.588
870.26	1.587
870.44	1.586
870.62	1.585
870.80	1.584
870.98	1.586
871.16	1.586
871.34	1.584
871.53	1.586
871.71	1.585
871.89	1.580
872.07	1.580
872.25	1.584
872.43	1.584
872.61	1.587
872.79	1.587
872.97	1.587
873.15	1.590
873.33	1.589
873.51	1.589
873.69	1.590
873.87	1.590
874.05	1.591
874.23	1.592
874.41	1.594
874.59	1.592
874.77	1.595
874.95	1.596
875.13	1.594
875.31	1.595
875.49	1.595
875.67	1.596
875.85	1.595
876.03	1.592
876.21	1.593
876.39	1.593
876.57	1.594
876.75	1.595
876.93	1.593
877.11	1.594
877.29	1.595
877.47	1.594
877.65	1.589
877.82	1.591
878.00	1.589
878.18	1.587
878.36	1.589
878.54	1.589
878.72	1.588
878.90	1.588
879.08	1.587
879.26	1.588
879.44	1.586
879.62	1.586
879.80	1.587
879.98	1.589
880.16	1.588
880.34	1.586
880.52	1.587
880.70	1.590
880.88	1.591
881.06	1.589
881.24	1.588
881.42	1.592
881.59	1.591
881.77	1.592
881.95	1.593
882.13	1.593
882.31	1.594
882.49	1.594
882.67	1.596
882.85	1.593
883.03	1.593
883.21	1.596
883.39	1.597
883.57	1.597
883.75	1.597
883.92	1.600
884.10	1.601
884.28	1.601
884.46	1.598
884.64	1.598
884.82	1.597
885.00	1.599
885.18	1.600
885.36	1.599
885.54	1.602
885.71	1.601
885.89	1.601
886.07	1.600
886.25	1.598
886.43	1.600
886.61	1.603
886.79	1.600
886.97	1.599
887.15	1.598
887.32	1.599
887.50	1.597
887.68	1.596
887.86	1.593
888.04	1.593
888.22	1.593
888.40	1.594
888.57	1.594
888.75	1.593
888.93	1.593
889.11	1.594
889.29	1.592
889.47	1.593
889.65	1.593
889.82	1.591
890.00	1.594
890.18	1.591
890.36	1.590
890.54	1.590
890.72	1.591
890.90	1.591
891.07	1.591
891.25	1.594
891.43	1.594
891.61	1.594
891.79	1.592
891.97	1.592
892.14	1.590
892.32	1.591
892.50	1.590
892.68	1.588
892.86	1.588
893.03	1.588
893.21	1.591
893.39	1.590
893.57	1.589
893.75	1.589
893.93	1.593
894.10	1.595
894.28	1.596
894.46	1.595
894.64	1.597
894.82	1.597
894.99	1.594
895.17	1.594
895.35	1.596
895.53	1.597
895.71	1.599
895.88	1.598
896.06	1.599
896.24	1.600
896.42	1.599
896.59	1.601
896.77	1.601
896.95	1.601
897.13	1.600
897.31	1.606
897.48	1.605
897.66	1.603
897.84	1.604
898.02	1.606
898.19	1.604
898.37	1.603
898.55	1.603
898.73	1.605
898.91	1.606
899.08	1.606
899.26	1.607
899.44	1.607
899.62	1.608
899.79	1.609
899.97	1.608
900.15	1.610
900.33	1.609
900.50	1.608
900.68	1.607
900.86	1.605
901.04	1.603
901.21	1.608
901.39	1.607
901.57	1.608
901.74	1.606
901.92	1.609
902.10	1.609
902.28	1.607
902.45	1.606
902.63	1.605
902.81	1.605
902.99	1.603
903.16	1.604
903.34	1.604
903.52	1.603
903.69	1.603
903.87	1.600
904.05	1.601
904.22	1.602
904.40	1.603
904.58	1.605
904.76	1.605
904.93	1.602
905.11	1.603
905.29	1.601
905.46	1.602
905.64	1.602
905.82	1.600
905.99	1.603
906.17	1.604
906.35	1.602
906.53	1.601
906.70	1.603
906.88	1.602
907.06	1.603
907.23	1.603
907.41	1.606
907.59	1.608
907.76	1.609
907.94	1.607
908.12	1.606
908.29	1.606
908.47	1.605
908.65	1.603
908.82	1.603
909.00	1.602
909.18	1.601
909.35	1.600
909.53	1.603
909.71	1.602
909.88	1.601
910.06	1.605
910.23	1.604
910.41	1.604
910.59	1.603
910.76	1.603
910.94	1.604
911.12	1.602
911.29	1.602
911.47	1.601
911.65	1.602
911.82	1.602
912.00	1.603
912.17	1.606
912.35	1.608
912.53	1.607
912.70	1.607
912.88	1.608
913.06	1.608
913.23	1.605
913.41	1.606
913.58	1.605
913.76	1.605
913.94	1.605
914.11	1.604
914.29	1.603
914.46	1.603
914.64	1.600
914.82	1.600
914.99	1.600
915.17	1.601
915.34	1.602
915.52	1.604
915.70	1.602
915.87	1.600
916.05	1.598
916.22	1.598
916.40	1.601
916.57	1.600
916.75	1.598
916.93	1.600
917.10	1.598
917.28	1.598
917.45	1.598
917.63	1.600
917.80	1.601
917.98	1.602
918.16	1.601
918.33	1.602
918.51	1.602
918.68	1.602
918.86	1.601
919.03	1.598
919.21	1.596
919.39	1.598
919.56	1.599
919.74	1.600
919.91	1.600
920.09	1.598
920.26	1.598
920.44	1.600
920.61	1.600
920.79	1.604
920.96	1.601
921.14	1.601
921.31	1.598
921.49	1.599
921.67	1.600
921.84	1.599
922.02	1.600
922.19	1.601
922.37	1.602
922.54	1.601
922.72	1.600
922.89	1.602
923.07	1.604
923.24	1.603
923.42	1.605
923.59	1.607
923.77	1.605
923.94	1.603
924.12	1.603
924.29	1.603
924.47	1.600
924.64	1.604
924.82	1.603
924.99	1.608
925.17	1.611
925.34	1.610
925.52	1.612
925.69	1.611
925.87	1.611
926.04	1.612
926.22	1.613
926.39	1.615
926.57	1.613
926.74	1.613
926.91	1.612
927.09	1.613
927.26	1.612
927.44	1.614
927.61	1.619
927.79	1.620
927.96	1.619
928.14	1.621
928.31	1.623
928.49	1.625
928.66	1.624
928.84	1.620
929.01	1.622
929.18	1.620
929.36	1.620
929.53	1.620
929.71	1.618
929.88	1.621
930.06	1.620
930.23	1.621
930.41	1.620
930.58	1.622
930.75	1.618
930.93	1.618
931.10	1.618
931.28	1.613
931.45	1.613
931.63	1.614
931.80	1.614
931.97	1.611
932.15	1.609
932.32	1.608
932.50	1.608
932.67	1.604
932.84	1.605
933.02	1.603
933.19	1.602
933.37	1.600
933.54	1.595
933.71	1.593
933.89	1.595
934.06	1.590
934.24	1.591
934.41	1.592
934.58	1.592
934.76	1.594
934.93	1.597
935.11	1.594
935.28	1.593
935.45	1.593
935.63	1.592
935.80	1.594
935.98	1.596
936.15	1.601
936.32	1.601
936.50	1.601
936.67	1.603
936.84	1.603
937.02	1.605
937.19	1.610
937.36	1.613
937.54	1.611
937.71	1.614
937.89	1.613
938.06	1.613
938.23	1.617
938.41	1.613
938.58	1.613
938.75	1.617
938.93	1.620
939.10	1.622
939.27	1.622
939.45	1.622
939.62	1.621
939.79	1.617
939.97	1.615
940.14	1.618
940.31	1.618
940.49	1.619
940.66	1.619
940.83	1.616
941.01	1.617
941.18	1.616
941.35	1.613
941.53	1.612
941.70	1.612
941.87	1.604
942.05	1.606
942.22	1.607
942.39	1.607
942.57	1.608
942.74	1.606
942.91	1.606
943.08	1.606
943.26	1.605
943.43	1.607
943.60	1.606
943.78	1.606
943.95	1.609
944.12	1.608
944.29	1.612
944.47	1.613
944.64	1.610
944.81	1.611
944.99	1.615
945.16	1.617
945.33	1.614
945.50	1.622
945.68	1.617
945.85	1.617
946.02	1.615
946.20	1.610
946.37	1.605
946.54	1.604
946.71	1.601
946.89	1.597
947.06	1.600
947.23	1.605
947.40	1.605
947.58	1.601
947.75	1.604
947.92	1.601
948.09	1.596
948.27	1.595
948.44	1.593
948.61	1.592
948.78	1.591
948.96	1.592
949.13	1.589
949.30	1.594
949.47	1.598
949.65	1.597
949.82	1.600
949.99	1.604
950.16	1.605
950.33	1.614
950.51	1.618
950.68	1.612
950.85	1.611
951.02	1.612
951.20	1.614
951.37	1.614
951.54	1.616
951.71	1.620
951.88	1.624
952.06	1.628
952.23	1.626
952.40	1.625
952.57	1.622
952.74	1.624
952.92	1.620
953.09	1.617
953.26	1.616
953.43	1.611
953.60	1.609
953.77	1.608
953.95	1.606
954.12	1.604
954.29	1.603
954.46	1.604
954.63	1.599
954.81	1.599
954.98	1.597
955.15	1.604
955.32	1.605
955.49	1.601
955.66	1.602
955.84	1.610
956.01	1.618
956.18	1.624
956.35	1.622
956.52	1.621
956.69	1.624
956.87	1.626
957.04	1.636
957.21	1.638
957.38	1.634
957.55	1.630
957.72	1.623
957.89	1.629
958.07	1.629
958.24	1.634
958.41	1.636
958.58	1.632
958.75	1.619
958.92	1.619
959.09	1.630
959.26	1.626
959.44	1.621
959.61	1.614
959.78	1.609
959.95	1.609
960.12	1.616
960.29	1.613
960.46	1.612
960.63	1.606
960.81	1.611
960.98	1.615
961.15	1.619
961.32	1.620
961.49	1.617
961.66	1.620
961.83	1.614
962.00	1.611
962.17	1.612
962.34	1.619
962.52	1.620
962.69	1.615
962.86	1.613
963.03	1.612
963.20	1.615
963.37	1.613
963.54	1.608
963.71	1.600
963.88	1.605
964.05	1.603
964.22	1.600
964.39	1.594
964.56	1.593
964.74	1.590
964.91	1.596
965.08	1.599
965.25	1.594
965.42	1.596
965.59	1.599
965.76	1.603
965.93	1.599
966.10	1.596
966.27	1.591
966.44	1.595
966.61	1.598
966.78	1.593
966.95	1.601
967.12	1.609
967.29	1.616
967.46	1.608
967.63	1.612
967.80	1.616
967.97	1.617
968.14	1.621
968.32	1.617
968.49	1.620
968.66	1.617
968.83	1.618
969.00	1.611
969.17	1.615
969.34	1.612
969.51	1.610
969.68	1.603
969.85	1.608
970.02	1.605
970.19	1.606
970.36	1.613
970.53	1.613
970.70	1.606
970.87	1.606
971.04	1.612
971.21	1.609
971.38	1.614
971.55	1.618
971.72	1.619
971.89	1.617
972.06	1.621
972.23	1.619
972.40	1.620
972.57	1.627
972.74	1.625
972.91	1.616
973.07	1.622
973.24	1.625
973.41	1.621
973.58	1.624
973.75	1.620
973.92	1.619
974.09	1.620
974.26	1.624
974.43	1.620
974.60	1.617
974.77	1.623
974.94	1.618
975.11	1.615
975.28	1.608
975.45	1.610
975.62	1.606
975.79	1.605
975.96	1.603
976.13	1.607
976.30	1.604
976.47	1.615
976.64	1.614
976.80	1.611
976.97	1.614
977.14	1.612
977.31	1.609
977.48	1.616
977.65	1.609
977.82	1.616
977.99	1.613
978.16	1.618
978.33	1.613
978.50	1.614
978.67	1.617
978.83	1.624
979.00	1.620
979.17	1.619
979.34	1.622
979.51	1.620
979.68	1.610
979.85	1.612
980.02	1.614
980.19	1.615
980.36	1.623
980.52	1.626
980.69	1.626
980.86	1.618
981.03	1.610
981.20	1.614
981.37	1.607
981.54	1.612
981.71	1.602
981.88	1.604
982.04	1.607
982.21	1.604
982.38	1.600
982.55	1.607
982.72	1.612
982.89	1.613
983.06	1.617
983.22	1.629
983.39	1.629
983.56	1.632
983.73	1.616
983.90	1.613
984.07	1.606
984.24	1.614
984.40	1.625
984.57	1.626
984.74	1.628
984.91	1.637
985.08	1.636
985.25	1.635
985.41	1.630
985.58	1.635
985.75	1.641
985.92	1.642
986.09	1.648
986.26	1.639
986.42	1.636
986.59	1.632
986.76	1.619
986.93	1.622
987.10	1.618
987.27	1.630
987.43	1.631
987.60	1.637
987.77	1.633
987.94	1.632
988.11	1.620
988.27	1.623
988.44	1.615
988.61	1.615
988.78	1.620
988.95	1.621
989.11	1.615
989.28	1.614
989.45	1.629
989.62	1.623
989.79	1.626
989.95	1.628
990.12	1.624
990.29	1.627
990.46	1.615
990.62	1.623
990.79	1.624
990.96	1.624
991.13	1.628
991.30	1.626
991.46	1.634
991.63	1.643
991.80	1.631
991.97	1.633
992.13	1.630
992.30	1.635
992.47	1.643
992.64	1.651
992.80	1.643
992.97	1.637
993.14	1.635
993.31	1.627
993.47	1.639
993.64	1.650
993.81	1.666
993.98	1.676
994.14	1.665
994.31	1.663
994.48	1.657
994.64	1.660
994.81	1.660
994.98	1.663
995.15	1.675
995.31	1.676
995.48	1.680
995.65	1.689
995.82	1.698
995.98	1.700
996.15	1.699
996.32	1.688
996.48	1.675
996.65	1.685
996.82	1.709
996.99	1.695
997.15	1.695
997.32	1.694
997.49	1.698
997.65	1.708
997.82	1.706
997.99	1.726
998.15	1.717
998.32	1.713
998.49	1.706
998.65	1.710
998.82	1.710
998.99	1.700
999.15	1.694
999.32	1.681
999.49	1.668
999.65	1.664
999.82	1.693
999.99	1.690
1000.15	1.693
1000.32	1.680
1000.49	1.685
1000.65	1.685
1000.82	1.664
1000.99	1.661
1001.15	1.654
1001.32	1.660
1001.49	1.656
1001.65	1.652
1001.82	1.658
1001.99	1.661
1002.15	1.651
1002.32	1.666
1002.49	1.660
1002.65	1.655
1002.82	1.662
1002.99	1.670
1003.15	1.671
1003.32	1.653
1003.48	1.666
1003.65	1.649
1003.82	1.642
1003.98	1.630
1004.15	1.628
1004.32	1.646
1004.48	1.648
1004.65	1.651
1004.81	1.651
1004.98	1.651
1005.15	1.657
1005.31	1.665
1005.48	1.663
1005.64	1.669
1005.81	1.660
1005.98	1.672
1006.14	1.677
1006.31	1.686
1006.47	1.673
1006.64	1.662
1006.81	1.668
1006.97	1.659
1007.14	1.658
1007.30	1.672
1007.47	1.682
1007.63	1.681
1007.80	1.670
1007.97	1.674
1008.13	1.664
1008.30	1.665
1008.46	1.656
1008.63	1.649
1008.79	1.622
1008.96	1.621
1009.13	1.621
1009.29	1.639
1009.46	1.632
1009.62	1.637
1009.79	1.617
1009.95	1.632
1010.12	1.624
1010.28	1.628
1010.45	1.630
1010.62	1.627
1010.78	1.609
1010.95	1.619
1011.11	1.623
1011.28	1.608
1011.44	1.594
1011.61	1.608
1011.77	1.609
1011.94	1.623
1012.10	1.632
1012.27	1.651
1012.43	1.661
1012.60	1.663
1012.76	1.624
1012.93	1.634
1013.10	1.623
1013.26	1.632
1013.43	1.626
1013.59	1.644
1013.76	1.626
1013.92	1.626
1014.09	1.634
1014.25	1.644
1014.42	1.633
1014.58	1.636
1014.75	1.648
1014.91	1.661
1015.08	1.658
1015.24	1.665
1015.41	1.629
1015.57	1.628
1015.73	1.625
1015.90	1.616
1016.06	1.605
1016.23	1.625
1016.39	1.626
1016.56	1.637
1016.72	1.631
1016.89	1.627
1017.05	1.615
1017.22	1.641
1017.38	1.647
1017.55	1.650
1017.71	1.645
1017.88	1.675
1018.04	1.668
1018.21	1.670
1018.37	1.655
1018.53	1.662
1018.70	1.655
1018.86	1.666
1019.03	1.648
1019.19	1.650
1019.36	1.644
1019.52	1.648
1019.69	1.650
1019.85	1.640
1020.01	1.645
1020.18	1.646
1020.34	1.641
1020.51	1.655
1020.67	1.652
1020.84	1.646
1021.00	1.647
1021.16	1.648
1021.33	1.614
1021.49	1.609
1021.66	1.614
1021.82	1.620
1021.98	1.604
1022.15	1.626
1022.31	1.629
1022.48	1.630
1022.64	1.623
1022.80	1.619
1022.97	1.625
1023.13	1.617
1023.30	1.620
1023.46	1.604
1023.62	1.597
1023.79	1.604
1023.95	1.588
1024.12	1.582
1024.28	1.586
1024.44	1.573
1024.61	1.566
1024.77	1.571
1024.93	1.566
1025.10	1.574
1025.26	1.570
1025.43	1.589
1025.59	1.574
1025.75	1.586
1025.92	1.579
1026.08	1.588
1026.24	1.574
1026.41	1.565
1026.57	1.576
1026.73	1.571
1026.90	1.588
1027.06	1.598
1027.23	1.599
1027.39	1.618
1027.55	1.623
1027.72	1.628
1027.88	1.645
1028.04	1.646
1028.21	1.644
1028.37	1.659
1028.53	1.651
1028.70	1.670
1028.86	1.651
1029.02	1.659
1029.19	1.635
1029.35	1.664
1029.51	1.669
1029.67	1.692
1029.84	1.704
1030.00	1.710
1030.16	1.741
1030.33	1.699
1030.49	1.677
1030.65	1.675
1030.82	1.659
1030.98	1.652
1031.14	1.624
1031.31	1.631
1031.47	1.666
1031.63	1.686
1031.79	1.667
1031.96	1.681
1032.12	1.692
1032.28	1.693
1032.45	1.675
1032.61	1.718
1032.77	1.704
1032.93	1.693
1033.10	1.713
1033.26	1.713
1033.42	1.695
1033.58	1.671
1033.75	1.692
1033.91	1.711
1034.07	1.753
1034.24	1.766
1034.40	1.759
1034.56	1.773
1034.72	1.756
1034.89	1.727
1035.05	1.704
1035.21	1.719
1035.37	1.717
1035.54	1.671
1035.70	1.650
1035.86	1.651
1036.02	1.622
1036.19	1.640
1036.35	1.667
1036.51	1.651
1036.67	1.628
1036.83	1.605
1037.00	1.588
1037.16	1.592
1037.32	1.598
1037.48	1.572
1037.65	1.558
1037.81	1.565
1037.97	1.561
1038.13	1.572
1038.29	1.586
1038.46	1.603
1038.62	1.589
1038.78	1.586
1038.94	1.581
1039.10	1.609
1039.27	1.624
1039.43	1.628
1039.59	1.632
1039.75	1.582
1039.91	1.590
1040.08	1.597
1040.24	1.625
1040.40	1.702
1040.56	1.686
1040.72	1.672
1040.89	1.689
1041.05	1.731
1041.21	1.731
1041.37	1.745
1041.53	1.749
1041.69	1.719
1041.86	1.717
1042.02	1.756
1042.18	1.744
1042.34	1.786
1042.50	1.788
1042.66	1.786
1042.83	1.820
1042.99	1.844
1043.15	1.907
1043.31	1.910
1043.47	1.940
1043.63	1.943
1043.79	1.836
1043.96	1.886
1044.12	1.862
1044.28	1.844
1044.44	1.814
1044.60	1.801
1044.76	1.795
1044.92	1.811
1045.09	1.809
1045.25	1.766
1045.41	1.637
1045.57	1.818
1045.73	1.274
1045.89	1.948
1046.05	1.931
1046.21	1.725
1046.38	1.370
1046.54	-0.000
1046.70	1.434
1046.86	1.403
>>>>>End Processed Spectral Data<<<<<
