SpectraSuite Data File
++++++++++++++++++++++++++++++++++++
Date: Mon May 06 14:16:44 CDT 2013
User: Students
Dark Spectrum Present: Yes
Reference Spectrum Present: Yes
Number of Sampled Component Spectra: 1
Spectrometers: USB4H00887
Integration Time (usec): 25000 (USB4H00887)
Spectra Averaged: 10 (USB4H00887)
Boxcar Smoothing: 10 (USB4H00887)
Correct for Electrical Dark: No (USB4H00887)
Strobe/Lamp Enabled: No (USB4H00887)
Correct for Detector Non-linearity: No (USB4H00887)
Correct for Stray Light: No (USB4H00887)
Number of Pixels in Processed Spectrum: 3648
>>>>>Begin Processed Spectral Data<<<<<
345.83	-0.000
346.05	-0.000
346.26	-0.000
346.48	-0.000
346.70	-0.092
346.92	-0.000
347.14	1.394
347.35	0.237
347.57	-0.391
347.79	0.008
348.01	0.669
348.23	0.937
348.44	0.554
348.66	0.540
348.88	0.571
349.10	0.614
349.32	0.598
349.53	0.513
349.75	0.556
349.97	0.694
350.19	0.865
350.41	-0.000
350.62	-0.000
350.84	-0.000
351.06	-0.000
351.28	-0.000
351.50	-0.000
351.71	-0.000
351.93	-0.000
352.15	-0.000
352.37	-0.000
352.58	-0.000
352.80	-0.000
353.02	-0.000
353.24	-0.000
353.46	-0.000
353.67	-0.000
353.89	-0.000
354.11	-0.000
354.33	-0.000
354.54	-0.000
354.76	-0.000
354.98	-0.000
355.20	-0.000
355.41	-0.000
355.63	-0.000
355.85	-0.000
356.07	1.934
356.28	-0.000
356.50	1.130
356.72	1.413
356.94	1.250
357.15	0.942
357.37	0.822
357.59	0.949
357.81	0.779
358.02	0.852
358.24	0.984
358.46	0.765
358.68	0.647
358.89	0.532
359.11	0.585
359.33	0.510
359.55	0.428
359.76	0.436
359.98	0.543
360.20	0.568
360.42	0.762
360.63	0.901
360.85	0.874
361.07	0.731
361.29	0.626
361.50	0.647
361.72	0.729
361.94	0.778
362.15	0.983
362.37	0.982
362.59	0.728
362.81	0.916
363.02	1.383
363.24	-0.000
363.46	-0.000
363.68	-0.000
363.89	-0.000
364.11	-0.000
364.33	-0.000
364.54	-0.000
364.76	-0.000
364.98	-0.000
365.20	-0.000
365.41	-0.000
365.63	-0.000
365.85	-0.000
366.06	-0.000
366.28	-0.000
366.50	-0.000
366.71	-0.000
366.93	-0.000
367.15	-0.000
367.37	-0.000
367.58	-0.000
367.80	-0.000
368.02	-0.000
368.23	-0.000
368.45	-0.000
368.67	1.364
368.88	1.128
369.10	1.470
369.32	-0.000
369.53	-0.000
369.75	-0.000
369.97	-0.000
370.19	-0.000
370.40	-0.000
370.62	1.206
370.84	0.919
371.05	0.761
371.27	0.708
371.49	0.732
371.70	0.819
371.92	0.872
372.14	0.925
372.35	0.943
372.57	1.129
372.79	2.834
373.00	1.497
373.22	1.244
373.44	1.090
373.65	1.480
373.87	-0.000
374.09	1.707
374.30	1.086
374.52	1.085
374.74	1.664
374.95	1.262
375.17	-0.000
375.39	-0.000
375.60	-0.000
375.82	-0.000
376.04	-0.000
376.25	-0.000
376.47	-0.000
376.68	-0.000
376.90	-0.000
377.12	-0.000
377.33	-0.000
377.55	-0.000
377.77	-0.000
377.98	-0.000
378.20	-0.000
378.42	-0.000
378.63	-0.000
378.85	-0.000
379.07	-0.000
379.28	-0.000
379.50	-0.000
379.71	-0.000
379.93	-0.000
380.15	-0.000
380.36	-0.000
380.58	-0.000
380.80	-0.000
381.01	-0.000
381.23	-0.000
381.44	-0.000
381.66	-0.000
381.88	-0.000
382.09	-0.000
382.31	-0.000
382.53	-0.000
382.74	-0.000
382.96	-0.000
383.17	-0.000
383.39	-0.000
383.61	-0.000
383.82	-0.000
384.04	-0.000
384.25	-0.000
384.47	-0.000
384.69	-0.000
384.90	-0.000
385.12	-0.000
385.33	-0.000
385.55	-0.000
385.77	-0.000
385.98	-0.000
386.20	-0.000
386.41	-0.000
386.63	-0.000
386.85	-0.000
387.06	-0.000
387.28	-0.000
387.49	-0.000
387.71	-0.000
387.93	2.855
388.14	-0.000
388.36	1.991
388.57	1.879
388.79	2.088
389.01	1.820
389.22	1.612
389.44	1.776
389.65	1.883
389.87	1.602
390.08	1.754
390.30	1.388
390.52	2.281
390.73	1.877
390.95	1.973
391.16	1.544
391.38	1.566
391.59	-0.000
391.81	-0.000
392.03	2.736
392.24	-0.000
392.46	-0.000
392.67	-0.000
392.89	-0.000
393.10	-0.000
393.32	-0.000
393.53	-0.000
393.75	-0.000
393.97	-0.000
394.18	-0.000
394.40	-0.000
394.61	-0.000
394.83	-0.000
395.04	-0.000
395.26	-0.000
395.47	-0.000
395.69	-0.000
395.91	-0.000
396.12	-0.000
396.34	-0.000
396.55	-0.000
396.77	-0.000
396.98	-0.000
397.20	-0.000
397.41	-0.000
397.63	-0.000
397.84	-0.000
398.06	-0.000
398.27	-0.000
398.49	-0.000
398.71	-0.000
398.92	-0.000
399.14	-0.000
399.35	-0.000
399.57	-0.000
399.78	-0.000
400.00	-0.000
400.21	3.366
400.43	-0.000
400.64	1.751
400.86	1.438
401.07	1.462
401.29	1.537
401.50	1.390
401.72	1.441
401.93	1.395
402.15	1.560
402.36	1.630
402.58	1.617
402.79	1.772
403.01	1.549
403.22	1.414
403.44	1.555
403.65	1.406
403.87	1.404
404.08	1.368
404.30	1.460
404.51	1.668
404.73	-0.000
404.94	2.345
405.16	-0.000
405.37	-0.000
405.59	-0.000
405.80	-0.000
406.02	-0.000
406.23	-0.000
406.45	-0.000
406.66	-0.000
406.88	-0.000
407.09	-0.000
407.31	-0.000
407.52	-0.000
407.74	-0.000
407.95	-0.000
408.17	-0.000
408.38	-0.000
408.60	-0.000
408.81	-0.000
409.03	-0.000
409.24	-0.000
409.45	-0.000
409.67	-0.000
409.88	-0.000
410.10	-0.000
410.31	-0.000
410.53	-0.000
410.74	-0.000
410.96	-0.000
411.17	-0.000
411.39	-0.000
411.60	-0.000
411.82	-0.000
412.03	-0.000
412.24	-0.000
412.46	-0.000
412.67	-0.000
412.89	-0.000
413.10	-0.000
413.32	-0.000
413.53	-0.000
413.75	2.281
413.96	-0.000
414.17	2.353
414.39	2.031
414.60	1.932
414.82	1.620
415.03	1.530
415.25	1.941
415.46	1.627
415.68	1.558
415.89	1.611
416.10	1.669
416.32	1.620
416.53	1.444
416.75	1.524
416.96	1.757
417.18	1.965
417.39	-0.000
417.60	-0.000
417.82	-0.000
418.03	-0.000
418.25	-0.000
418.46	-0.000
418.67	-0.000
418.89	-0.000
419.10	-0.000
419.32	-0.000
419.53	-0.000
419.75	-0.000
419.96	-0.000
420.17	-0.000
420.39	-0.000
420.60	-0.000
420.82	-0.000
421.03	-0.000
421.24	-0.000
421.46	-0.000
421.67	-0.000
421.89	-0.000
422.10	-0.000
422.31	-0.000
422.53	-0.000
422.74	2.711
422.96	2.031
423.17	1.925
423.38	1.712
423.60	1.616
423.81	1.771
424.03	1.599
424.24	1.677
424.45	-0.000
424.67	-0.000
424.88	-0.000
425.09	-0.000
425.31	-0.000
425.52	3.038
425.74	-0.000
425.95	-0.000
426.16	-0.000
426.38	-0.000
426.59	-0.000
426.80	-0.000
427.02	-0.000
427.23	-0.000
427.45	-0.000
427.66	-0.000
427.87	-0.000
428.09	-0.000
428.30	-0.000
428.51	-0.000
428.73	-0.000
428.94	-0.000
429.15	-0.000
429.37	-0.000
429.58	-0.000
429.79	-0.000
430.01	-0.000
430.22	-0.000
430.44	2.617
430.65	2.112
430.86	1.908
431.08	1.835
431.29	2.776
431.50	2.047
431.72	2.149
431.93	1.799
432.14	1.694
432.36	1.705
432.57	1.817
432.78	1.827
433.00	1.782
433.21	1.788
433.42	1.980
433.64	1.889
433.85	1.852
434.06	1.968
434.28	3.082
434.49	-0.000
434.70	-0.000
434.92	3.547
435.13	-0.000
435.34	3.036
435.56	-0.000
435.77	2.272
435.98	2.751
436.20	2.787
436.41	2.392
436.62	2.177
436.83	2.357
437.05	2.462
437.26	2.014
437.47	2.352
437.69	1.938
437.90	1.814
438.11	1.783
438.33	1.768
438.54	1.666
438.75	1.575
438.97	1.499
439.18	1.503
439.39	1.549
439.60	1.507
439.82	1.563
440.03	1.534
440.24	1.586
440.46	1.505
440.67	1.474
440.88	1.514
441.10	1.534
441.31	1.568
441.52	1.517
441.73	1.610
441.95	1.608
442.16	1.790
442.37	1.896
442.58	1.840
442.80	1.926
443.01	2.151
443.22	2.388
443.44	-0.000
443.65	-0.000
443.86	-0.000
444.07	-0.000
444.29	-0.000
444.50	-0.000
444.71	-0.000
444.92	-0.000
445.14	-0.000
445.35	-0.000
445.56	-0.000
445.78	2.452
445.99	2.563
446.20	2.281
446.41	2.307
446.63	2.246
446.84	1.912
447.05	2.007
447.26	1.932
447.48	1.825
447.69	1.730
447.90	1.637
448.11	1.538
448.33	1.522
448.54	1.538
448.75	1.521
448.96	1.509
449.18	1.512
449.39	1.571
449.60	1.547
449.81	1.581
450.03	1.579
450.24	1.592
450.45	1.592
450.66	1.571
450.87	1.545
451.09	1.578
451.30	1.637
451.51	1.616
451.72	1.614
451.94	1.554
452.15	1.608
452.36	1.629
452.57	1.672
452.78	1.662
453.00	1.684
453.21	1.656
453.42	1.632
453.63	1.695
453.85	1.653
454.06	1.643
454.27	1.614
454.48	1.631
454.69	1.628
454.91	1.679
455.12	1.672
455.33	1.660
455.54	1.599
455.75	1.558
455.97	1.578
456.18	1.594
456.39	1.651
456.60	1.644
456.81	1.622
457.03	1.616
457.24	1.581
457.45	1.587
457.66	1.621
457.87	1.637
458.09	1.633
458.30	1.619
458.51	1.657
458.72	1.683
458.93	1.653
459.15	1.723
459.36	1.645
459.57	1.615
459.78	1.665
459.99	1.675
460.20	1.733
460.42	1.779
460.63	1.735
460.84	1.722
461.05	1.672
461.26	1.667
461.47	1.659
461.69	1.679
461.90	1.630
462.11	1.596
462.32	1.555
462.53	1.507
462.74	1.473
462.96	1.464
463.17	1.460
463.38	1.485
463.59	1.437
463.80	1.445
464.01	1.470
464.23	1.468
464.44	1.458
464.65	1.444
464.86	1.414
465.07	1.435
465.28	1.450
465.49	1.480
465.71	1.499
465.92	1.493
466.13	1.508
466.34	1.519
466.55	1.539
466.76	1.564
466.97	1.591
467.19	1.604
467.40	1.615
467.61	1.605
467.82	1.600
468.03	1.628
468.24	1.628
468.45	1.623
468.66	1.590
468.88	1.595
469.09	1.603
469.30	1.613
469.51	1.603
469.72	1.608
469.93	1.576
470.14	1.565
470.35	1.592
470.57	1.569
470.78	1.571
470.99	1.559
471.20	1.528
471.41	1.523
471.62	1.540
471.83	1.509
472.04	1.498
472.25	1.481
472.47	1.474
472.68	1.460
472.89	1.447
473.10	1.449
473.31	1.443
473.52	1.438
473.73	1.448
473.94	1.430
474.15	1.405
474.36	1.405
474.57	1.399
474.79	1.392
475.00	1.399
475.21	1.395
475.42	1.400
475.63	1.424
475.84	1.426
476.05	1.434
476.26	1.444
476.47	1.458
476.68	1.471
476.89	1.467
477.10	1.470
477.32	1.467
477.53	1.479
477.74	1.479
477.95	1.473
478.16	1.469
478.37	1.468
478.58	1.465
478.79	1.476
479.00	1.489
479.21	1.481
479.42	1.480
479.63	1.478
479.84	1.477
480.05	1.463
480.26	1.469
480.47	1.458
480.69	1.453
480.90	1.457
481.11	1.458
481.32	1.462
481.53	1.465
481.74	1.481
481.95	1.471
482.16	1.471
482.37	1.465
482.58	1.456
482.79	1.456
483.00	1.464
483.21	1.462
483.42	1.449
483.63	1.454
483.84	1.450
484.05	1.457
484.26	1.458
484.47	1.464
484.68	1.457
484.89	1.451
485.10	1.452
485.31	1.449
485.52	1.440
485.73	1.430
485.94	1.440
486.15	1.419
486.37	1.419
486.58	1.426
486.79	1.439
487.00	1.438
487.21	1.449
487.42	1.445
487.63	1.441
487.84	1.443
488.05	1.443
488.26	1.444
488.47	1.438
488.68	1.445
488.89	1.441
489.10	1.434
489.31	1.441
489.52	1.443
489.73	1.447
489.94	1.444
490.15	1.454
490.36	1.445
490.57	1.453
490.78	1.456
490.99	1.449
491.20	1.441
491.41	1.439
491.62	1.436
491.83	1.441
492.04	1.445
492.25	1.453
492.45	1.456
492.66	1.459
492.87	1.453
493.08	1.448
493.29	1.444
493.50	1.448
493.71	1.447
493.92	1.453
494.13	1.442
494.34	1.446
494.55	1.444
494.76	1.445
494.97	1.448
495.18	1.445
495.39	1.439
495.60	1.439
495.81	1.440
496.02	1.439
496.23	1.445
496.44	1.445
496.65	1.439
496.86	1.438
497.07	1.437
497.28	1.448
497.49	1.438
497.70	1.443
497.91	1.443
498.12	1.444
498.32	1.438
498.53	1.450
498.74	1.447
498.95	1.445
499.16	1.449
499.37	1.445
499.58	1.448
499.79	1.456
500.00	1.463
500.21	1.460
500.42	1.451
500.63	1.450
500.84	1.453
501.05	1.459
501.26	1.462
501.46	1.462
501.67	1.462
501.88	1.481
502.09	1.477
502.30	1.479
502.51	1.486
502.72	1.497
502.93	1.498
503.14	1.499
503.35	1.505
503.56	1.503
503.77	1.509
503.97	1.507
504.18	1.510
504.39	1.508
504.60	1.519
504.81	1.530
505.02	1.532
505.23	1.534
505.44	1.525
505.65	1.519
505.86	1.526
506.07	1.535
506.27	1.535
506.48	1.538
506.69	1.531
506.90	1.522
507.11	1.530
507.32	1.532
507.53	1.543
507.74	1.549
507.95	1.555
508.15	1.564
508.36	1.567
508.57	1.570
508.78	1.572
508.99	1.581
509.20	1.574
509.41	1.566
509.62	1.564
509.82	1.574
510.03	1.582
510.24	1.576
510.45	1.574
510.66	1.565
510.87	1.566
511.08	1.575
511.29	1.596
511.49	1.581
511.70	1.578
511.91	1.575
512.12	1.567
512.33	1.559
512.54	1.559
512.75	1.561
512.95	1.557
513.16	1.558
513.37	1.554
513.58	1.560
513.79	1.565
514.00	1.561
514.20	1.552
514.41	1.544
514.62	1.551
514.83	1.545
515.04	1.548
515.25	1.548
515.46	1.546
515.66	1.533
515.87	1.537
516.08	1.530
516.29	1.526
516.50	1.524
516.71	1.528
516.91	1.527
517.12	1.524
517.33	1.531
517.54	1.528
517.75	1.527
517.95	1.538
518.16	1.547
518.37	1.545
518.58	1.548
518.79	1.556
519.00	1.559
519.20	1.558
519.41	1.557
519.62	1.561
519.83	1.572
520.04	1.574
520.24	1.570
520.45	1.579
520.66	1.587
520.87	1.589
521.08	1.600
521.28	1.600
521.49	1.600
521.70	1.595
521.91	1.593
522.12	1.598
522.32	1.592
522.53	1.585
522.74	1.592
522.95	1.598
523.16	1.592
523.36	1.587
523.57	1.591
523.78	1.587
523.99	1.580
524.20	1.577
524.40	1.583
524.61	1.590
524.82	1.591
525.03	1.592
525.23	1.597
525.44	1.586
525.65	1.588
525.86	1.592
526.06	1.598
526.27	1.599
526.48	1.591
526.69	1.587
526.90	1.587
527.10	1.588
527.31	1.588
527.52	1.598
527.73	1.589
527.93	1.593
528.14	1.595
528.35	1.600
528.56	1.594
528.76	1.595
528.97	1.594
529.18	1.584
529.39	1.577
529.59	1.575
529.80	1.573
530.01	1.572
530.22	1.570
530.42	1.564
530.63	1.567
530.84	1.569
531.05	1.571
531.25	1.571
531.46	1.565
531.67	1.566
531.88	1.567
532.08	1.580
532.29	1.581
532.50	1.579
532.70	1.585
532.91	1.582
533.12	1.581
533.33	1.576
533.53	1.573
533.74	1.575
533.95	1.572
534.15	1.579
534.36	1.573
534.57	1.572
534.78	1.579
534.98	1.579
535.19	1.578
535.40	1.573
535.60	1.571
535.81	1.570
536.02	1.569
536.23	1.567
536.43	1.563
536.64	1.558
536.85	1.564
537.05	1.558
537.26	1.567
537.47	1.564
537.67	1.567
537.88	1.575
538.09	1.570
538.30	1.575
538.50	1.571
538.71	1.580
538.92	1.580
539.12	1.577
539.33	1.576
539.54	1.578
539.74	1.583
539.95	1.588
540.16	1.590
540.36	1.591
540.57	1.588
540.78	1.583
540.98	1.583
541.19	1.582
541.40	1.582
541.60	1.580
541.81	1.578
542.02	1.575
542.22	1.577
542.43	1.583
542.64	1.575
542.84	1.576
543.05	1.575
543.26	1.581
543.46	1.576
543.67	1.582
543.88	1.576
544.08	1.575
544.29	1.569
544.50	1.570
544.70	1.570
544.91	1.570
545.12	1.575
545.32	1.573
545.53	1.568
545.74	1.574
545.94	1.575
546.15	1.574
546.35	1.574
546.56	1.570
546.77	1.569
546.97	1.573
547.18	1.574
547.39	1.569
547.59	1.561
547.80	1.566
548.01	1.559
548.21	1.559
548.42	1.558
548.62	1.563
548.83	1.563
549.04	1.567
549.24	1.566
549.45	1.565
549.65	1.563
549.86	1.565
550.07	1.561
550.27	1.557
550.48	1.556
550.69	1.558
550.89	1.564
551.10	1.567
551.30	1.570
551.51	1.571
551.72	1.579
551.92	1.580
552.13	1.576
552.33	1.584
552.54	1.591
552.75	1.594
552.95	1.588
553.16	1.584
553.36	1.581
553.57	1.579
553.78	1.575
553.98	1.581
554.19	1.587
554.39	1.590
554.60	1.591
554.80	1.592
555.01	1.591
555.22	1.584
555.42	1.584
555.63	1.578
555.83	1.581
556.04	1.575
556.25	1.579
556.45	1.578
556.66	1.571
556.86	1.565
557.07	1.563
557.27	1.571
557.48	1.573
557.68	1.567
557.89	1.570
558.10	1.571
558.30	1.569
558.51	1.568
558.71	1.564
558.92	1.563
559.12	1.567
559.33	1.570
559.54	1.573
559.74	1.565
559.95	1.566
560.15	1.565
560.36	1.565
560.56	1.558
560.77	1.559
560.97	1.561
561.18	1.563
561.38	1.565
561.59	1.561
561.79	1.563
562.00	1.565
562.21	1.564
562.41	1.565
562.62	1.560
562.82	1.560
563.03	1.562
563.23	1.560
563.44	1.554
563.64	1.552
563.85	1.553
564.05	1.554
564.26	1.556
564.46	1.555
564.67	1.559
564.87	1.561
565.08	1.562
565.28	1.558
565.49	1.559
565.69	1.556
565.90	1.553
566.10	1.552
566.31	1.556
566.51	1.550
566.72	1.546
566.92	1.549
567.13	1.546
567.33	1.544
567.54	1.548
567.74	1.550
567.95	1.550
568.15	1.548
568.36	1.552
568.56	1.550
568.77	1.550
568.97	1.547
569.18	1.550
569.38	1.547
569.59	1.556
569.79	1.554
570.00	1.561
570.20	1.563
570.41	1.563
570.61	1.559
570.82	1.562
571.02	1.564
571.23	1.563
571.43	1.567
571.64	1.569
571.84	1.568
572.05	1.567
572.25	1.566
572.45	1.564
572.66	1.564
572.86	1.568
573.07	1.564
573.27	1.560
573.48	1.557
573.68	1.560
573.89	1.553
574.09	1.556
574.30	1.551
574.50	1.542
574.70	1.541
574.91	1.542
575.11	1.547
575.32	1.546
575.52	1.550
575.73	1.549
575.93	1.546
576.14	1.543
576.34	1.544
576.54	1.549
576.75	1.551
576.95	1.553
577.16	1.551
577.36	1.550
577.57	1.552
577.77	1.552
577.97	1.545
578.18	1.548
578.38	1.546
578.59	1.550
578.79	1.555
579.00	1.557
579.20	1.560
579.40	1.556
579.61	1.554
579.81	1.549
580.02	1.544
580.22	1.543
580.42	1.544
580.63	1.542
580.83	1.533
581.04	1.530
581.24	1.526
581.45	1.522
581.65	1.527
581.85	1.527
582.06	1.527
582.26	1.525
582.47	1.521
582.67	1.522
582.87	1.517
583.08	1.518
583.28	1.518
583.48	1.519
583.69	1.519
583.89	1.522
584.10	1.526
584.30	1.530
584.50	1.529
584.71	1.531
584.91	1.528
585.12	1.527
585.32	1.528
585.52	1.531
585.73	1.531
585.93	1.527
586.13	1.527
586.34	1.526
586.54	1.533
586.75	1.536
586.95	1.534
587.15	1.537
587.36	1.538
587.56	1.533
587.76	1.533
587.97	1.533
588.17	1.529
588.37	1.531
588.58	1.527
588.78	1.530
588.98	1.529
589.19	1.533
589.39	1.539
589.60	1.541
589.80	1.536
590.00	1.539
590.21	1.542
590.41	1.540
590.61	1.539
590.82	1.537
591.02	1.533
591.22	1.532
591.43	1.532
591.63	1.534
591.83	1.539
592.04	1.537
592.24	1.533
592.44	1.538
592.65	1.534
592.85	1.539
593.05	1.540
593.26	1.536
593.46	1.535
593.66	1.536
593.86	1.532
594.07	1.535
594.27	1.536
594.47	1.535
594.68	1.535
594.88	1.535
595.08	1.531
595.29	1.536
595.49	1.538
595.69	1.538
595.90	1.534
596.10	1.532
596.30	1.535
596.50	1.536
596.71	1.532
596.91	1.532
597.11	1.530
597.32	1.532
597.52	1.533
597.72	1.533
597.93	1.533
598.13	1.538
598.33	1.537
598.53	1.538
598.74	1.536
598.94	1.537
599.14	1.539
599.35	1.540
599.55	1.539
599.75	1.538
599.95	1.537
600.16	1.538
600.36	1.537
600.56	1.534
600.76	1.533
600.97	1.536
601.17	1.537
601.37	1.535
601.58	1.535
601.78	1.537
601.98	1.537
602.18	1.537
602.39	1.532
602.59	1.533
602.79	1.532
602.99	1.532
603.20	1.534
603.40	1.532
603.60	1.533
603.80	1.535
604.01	1.535
604.21	1.537
604.41	1.539
604.61	1.540
604.82	1.545
605.02	1.544
605.22	1.542
605.42	1.543
605.62	1.540
605.83	1.537
606.03	1.539
606.23	1.540
606.43	1.540
606.64	1.540
606.84	1.537
607.04	1.536
607.24	1.538
607.45	1.536
607.65	1.539
607.85	1.537
608.05	1.536
608.25	1.536
608.46	1.535
608.66	1.534
608.86	1.535
609.06	1.531
609.26	1.533
609.47	1.534
609.67	1.533
609.87	1.535
610.07	1.537
610.28	1.536
610.48	1.535
610.68	1.531
610.88	1.537
611.08	1.534
611.29	1.532
611.49	1.531
611.69	1.532
611.89	1.531
612.09	1.533
612.29	1.532
612.50	1.530
612.70	1.529
612.90	1.528
613.10	1.526
613.30	1.528
613.51	1.528
613.71	1.529
613.91	1.529
614.11	1.527
614.31	1.528
614.51	1.526
614.72	1.528
614.92	1.530
615.12	1.530
615.32	1.534
615.52	1.538
615.72	1.539
615.93	1.538
616.13	1.538
616.33	1.542
616.53	1.544
616.73	1.544
616.93	1.548
617.14	1.547
617.34	1.547
617.54	1.545
617.74	1.544
617.94	1.544
618.14	1.544
618.34	1.546
618.55	1.546
618.75	1.547
618.95	1.544
619.15	1.546
619.35	1.547
619.55	1.547
619.75	1.548
619.96	1.550
620.16	1.549
620.36	1.550
620.56	1.548
620.76	1.546
620.96	1.548
621.16	1.546
621.36	1.544
621.57	1.545
621.77	1.546
621.97	1.546
622.17	1.545
622.37	1.544
622.57	1.547
622.77	1.547
622.97	1.549
623.18	1.550
623.38	1.547
623.58	1.543
623.78	1.543
623.98	1.540
624.18	1.534
624.38	1.536
624.58	1.536
624.78	1.536
624.98	1.535
625.19	1.535
625.39	1.536
625.59	1.537
625.79	1.537
625.99	1.539
626.19	1.540
626.39	1.540
626.59	1.544
626.79	1.544
626.99	1.540
627.19	1.540
627.40	1.541
627.60	1.542
627.80	1.543
628.00	1.541
628.20	1.541
628.40	1.546
628.60	1.545
628.80	1.545
629.00	1.545
629.20	1.546
629.40	1.546
629.60	1.545
629.80	1.547
630.00	1.548
630.20	1.547
630.41	1.546
630.61	1.546
630.81	1.545
631.01	1.544
631.21	1.548
631.41	1.547
631.61	1.546
631.81	1.546
632.01	1.546
632.21	1.550
632.41	1.552
632.61	1.551
632.81	1.549
633.01	1.551
633.21	1.551
633.41	1.551
633.61	1.551
633.81	1.553
634.01	1.555
634.21	1.555
634.41	1.556
634.61	1.556
634.81	1.557
635.01	1.553
635.22	1.550
635.42	1.548
635.62	1.550
635.82	1.551
636.02	1.551
636.22	1.554
636.42	1.554
636.62	1.558
636.82	1.559
637.02	1.563
637.22	1.564
637.42	1.566
637.62	1.566
637.82	1.568
638.02	1.566
638.22	1.565
638.42	1.567
638.62	1.567
638.82	1.567
639.02	1.569
639.22	1.576
639.42	1.577
639.62	1.576
639.82	1.579
640.02	1.579
640.22	1.580
640.42	1.579
640.62	1.576
640.82	1.571
641.02	1.572
641.22	1.571
641.42	1.566
641.61	1.563
641.81	1.566
642.01	1.565
642.21	1.566
642.41	1.568
642.61	1.565
642.81	1.565
643.01	1.567
643.21	1.566
643.41	1.564
643.61	1.566
643.81	1.569
644.01	1.568
644.21	1.568
644.41	1.569
644.61	1.566
644.81	1.567
645.01	1.568
645.21	1.569
645.41	1.569
645.61	1.572
645.81	1.571
646.01	1.571
646.21	1.567
646.40	1.570
646.60	1.566
646.80	1.566
647.00	1.566
647.20	1.561
647.40	1.560
647.60	1.561
647.80	1.561
648.00	1.560
648.20	1.559
648.40	1.557
648.60	1.558
648.80	1.561
649.00	1.560
649.20	1.559
649.39	1.557
649.59	1.558
649.79	1.559
649.99	1.561
650.19	1.561
650.39	1.565
650.59	1.564
650.79	1.567
650.99	1.565
651.19	1.564
651.39	1.566
651.58	1.568
651.78	1.564
651.98	1.566
652.18	1.566
652.38	1.565
652.58	1.566
652.78	1.565
652.98	1.566
653.18	1.568
653.38	1.571
653.57	1.572
653.77	1.574
653.97	1.573
654.17	1.570
654.37	1.573
654.57	1.572
654.77	1.571
654.97	1.572
655.16	1.572
655.36	1.573
655.56	1.573
655.76	1.574
655.96	1.576
656.16	1.574
656.36	1.574
656.56	1.576
656.75	1.576
656.95	1.579
657.15	1.579
657.35	1.576
657.55	1.575
657.75	1.571
657.95	1.569
658.14	1.567
658.34	1.566
658.54	1.563
658.74	1.563
658.94	1.563
659.14	1.563
659.34	1.567
659.53	1.569
659.73	1.570
659.93	1.571
660.13	1.570
660.33	1.567
660.53	1.566
660.72	1.568
660.92	1.565
661.12	1.559
661.32	1.558
661.52	1.560
661.72	1.560
661.91	1.564
662.11	1.564
662.31	1.563
662.51	1.566
662.71	1.565
662.90	1.565
663.10	1.565
663.30	1.564
663.50	1.564
663.70	1.564
663.90	1.562
664.09	1.559
664.29	1.558
664.49	1.564
664.69	1.562
664.89	1.560
665.08	1.560
665.28	1.564
665.48	1.564
665.68	1.563
665.88	1.562
666.07	1.560
666.27	1.564
666.47	1.566
666.67	1.565
666.87	1.564
667.06	1.567
667.26	1.568
667.46	1.568
667.66	1.565
667.85	1.567
668.05	1.568
668.25	1.569
668.45	1.570
668.65	1.570
668.84	1.574
669.04	1.577
669.24	1.580
669.44	1.584
669.63	1.586
669.83	1.589
670.03	1.591
670.23	1.594
670.42	1.589
670.62	1.588
670.82	1.589
671.02	1.592
671.22	1.591
671.41	1.589
671.61	1.590
671.81	1.593
672.01	1.592
672.20	1.592
672.40	1.594
672.60	1.595
672.80	1.591
672.99	1.588
673.19	1.587
673.39	1.584
673.58	1.582
673.78	1.581
673.98	1.578
674.18	1.577
674.37	1.575
674.57	1.576
674.77	1.577
674.97	1.578
675.16	1.581
675.36	1.579
675.56	1.580
675.75	1.579
675.95	1.578
676.15	1.577
676.35	1.577
676.54	1.577
676.74	1.578
676.94	1.580
677.13	1.582
677.33	1.579
677.53	1.583
677.73	1.584
677.92	1.584
678.12	1.585
678.32	1.585
678.51	1.582
678.71	1.581
678.91	1.582
679.11	1.582
679.30	1.581
679.50	1.585
679.70	1.588
679.89	1.587
680.09	1.587
680.29	1.590
680.48	1.592
680.68	1.588
680.88	1.588
681.07	1.587
681.27	1.584
681.47	1.584
681.66	1.584
681.86	1.585
682.06	1.586
682.25	1.584
682.45	1.585
682.65	1.589
682.84	1.590
683.04	1.587
683.24	1.588
683.43	1.586
683.63	1.584
683.83	1.581
684.02	1.585
684.22	1.585
684.42	1.581
684.61	1.581
684.81	1.585
685.01	1.585
685.20	1.587
685.40	1.590
685.60	1.591
685.79	1.588
685.99	1.589
686.19	1.590
686.38	1.589
686.58	1.590
686.77	1.590
686.97	1.591
687.17	1.591
687.36	1.589
687.56	1.588
687.76	1.586
687.95	1.584
688.15	1.580
688.34	1.581
688.54	1.582
688.74	1.581
688.93	1.580
689.13	1.583
689.33	1.585
689.52	1.585
689.72	1.585
689.91	1.588
690.11	1.586
690.31	1.584
690.50	1.585
690.70	1.586
690.89	1.586
691.09	1.589
691.29	1.589
691.48	1.586
691.68	1.587
691.87	1.591
692.07	1.594
692.27	1.595
692.46	1.597
692.66	1.598
692.85	1.599
693.05	1.599
693.25	1.596
693.44	1.591
693.64	1.591
693.83	1.590
694.03	1.590
694.22	1.589
694.42	1.588
694.62	1.588
694.81	1.589
695.01	1.588
695.20	1.583
695.40	1.587
695.59	1.589
695.79	1.590
695.99	1.590
696.18	1.588
696.38	1.585
696.57	1.584
696.77	1.584
696.96	1.585
697.16	1.583
697.36	1.583
697.55	1.585
697.75	1.584
697.94	1.586
698.14	1.585
698.33	1.587
698.53	1.589
698.72	1.590
698.92	1.589
699.11	1.589
699.31	1.590
699.51	1.588
699.70	1.589
699.90	1.588
700.09	1.587
700.29	1.587
700.48	1.589
700.68	1.590
700.87	1.592
701.07	1.591
701.26	1.594
701.46	1.595
701.65	1.599
701.85	1.599
702.04	1.599
702.24	1.600
702.43	1.601
702.63	1.601
702.82	1.601
703.02	1.600
703.21	1.599
703.41	1.602
703.60	1.603
703.80	1.604
703.99	1.605
704.19	1.606
704.38	1.609
704.58	1.608
704.77	1.608
704.97	1.606
705.16	1.605
705.36	1.606
705.55	1.609
705.75	1.605
705.94	1.604
706.14	1.605
706.33	1.604
706.53	1.605
706.72	1.605
706.92	1.606
707.11	1.606
707.31	1.607
707.50	1.605
707.70	1.604
707.89	1.604
708.09	1.602
708.28	1.605
708.48	1.603
708.67	1.604
708.86	1.604
709.06	1.605
709.25	1.606
709.45	1.605
709.64	1.601
709.84	1.602
710.03	1.601
710.23	1.601
710.42	1.602
710.62	1.601
710.81	1.600
711.00	1.598
711.20	1.600
711.39	1.602
711.59	1.603
711.78	1.605
711.98	1.602
712.17	1.604
712.37	1.603
712.56	1.605
712.75	1.605
712.95	1.606
713.14	1.605
713.34	1.605
713.53	1.603
713.73	1.602
713.92	1.604
714.11	1.607
714.31	1.609
714.50	1.609
714.70	1.610
714.89	1.609
715.08	1.612
715.28	1.614
715.47	1.612
715.67	1.613
715.86	1.610
716.06	1.611
716.25	1.612
716.44	1.609
716.64	1.609
716.83	1.610
717.03	1.610
717.22	1.611
717.41	1.612
717.61	1.613
717.80	1.616
717.99	1.616
718.19	1.613
718.38	1.608
718.58	1.606
718.77	1.605
718.96	1.606
719.16	1.604
719.35	1.598
719.55	1.602
719.74	1.600
719.93	1.601
720.13	1.602
720.32	1.603
720.51	1.606
720.71	1.605
720.90	1.602
721.10	1.600
721.29	1.601
721.48	1.598
721.68	1.598
721.87	1.598
722.06	1.596
722.26	1.597
722.45	1.602
722.64	1.603
722.84	1.606
723.03	1.605
723.22	1.606
723.42	1.609
723.61	1.608
723.80	1.610
724.00	1.614
724.19	1.614
724.38	1.613
724.58	1.611
724.77	1.614
724.96	1.617
725.16	1.619
725.35	1.618
725.54	1.623
725.74	1.625
725.93	1.623
726.12	1.625
726.32	1.626
726.51	1.627
726.70	1.625
726.90	1.621
727.09	1.622
727.28	1.625
727.48	1.625
727.67	1.624
727.86	1.623
728.06	1.619
728.25	1.618
728.44	1.619
728.64	1.617
728.83	1.616
729.02	1.616
729.21	1.615
729.41	1.617
729.60	1.613
729.79	1.614
729.99	1.615
730.18	1.613
730.37	1.613
730.56	1.613
730.76	1.616
730.95	1.616
731.14	1.619
731.34	1.618
731.53	1.617
731.72	1.618
731.91	1.616
732.11	1.619
732.30	1.622
732.49	1.622
732.69	1.623
732.88	1.623
733.07	1.619
733.26	1.621
733.46	1.621
733.65	1.621
733.84	1.620
734.03	1.619
734.23	1.623
734.42	1.625
734.61	1.624
734.80	1.622
735.00	1.624
735.19	1.621
735.38	1.620
735.57	1.622
735.77	1.622
735.96	1.624
736.15	1.623
736.34	1.619
736.54	1.614
736.73	1.615
736.92	1.614
737.11	1.617
737.31	1.616
737.50	1.613
737.69	1.614
737.88	1.617
738.07	1.618
738.27	1.613
738.46	1.613
738.65	1.613
738.84	1.612
739.04	1.611
739.23	1.611
739.42	1.611
739.61	1.610
739.80	1.611
740.00	1.613
740.19	1.613
740.38	1.614
740.57	1.620
740.76	1.621
740.96	1.623
741.15	1.624
741.34	1.623
741.53	1.626
741.72	1.625
741.92	1.623
742.11	1.625
742.30	1.627
742.49	1.627
742.68	1.629
742.88	1.631
743.07	1.631
743.26	1.632
743.45	1.633
743.64	1.634
743.84	1.632
744.03	1.628
744.22	1.631
744.41	1.634
744.60	1.632
744.79	1.632
744.99	1.630
745.18	1.629
745.37	1.632
745.56	1.632
745.75	1.631
745.94	1.634
746.14	1.630
746.33	1.632
746.52	1.629
746.71	1.628
746.90	1.626
747.09	1.626
747.28	1.625
747.48	1.623
747.67	1.625
747.86	1.625
748.05	1.625
748.24	1.621
748.43	1.615
748.62	1.618
748.82	1.617
749.01	1.616
749.20	1.616
749.39	1.614
749.58	1.610
749.77	1.612
749.96	1.609
750.16	1.613
750.35	1.610
750.54	1.608
750.73	1.609
750.92	1.610
751.11	1.612
751.30	1.613
751.49	1.615
751.68	1.615
751.88	1.615
752.07	1.616
752.26	1.621
752.45	1.623
752.64	1.619
752.83	1.618
753.02	1.622
753.21	1.625
753.40	1.628
753.60	1.631
753.79	1.630
753.98	1.631
754.17	1.627
754.36	1.627
754.55	1.630
754.74	1.628
754.93	1.627
755.12	1.627
755.31	1.627
755.50	1.628
755.70	1.628
755.89	1.628
756.08	1.629
756.27	1.625
756.46	1.625
756.65	1.629
756.84	1.631
757.03	1.630
757.22	1.624
757.41	1.625
757.60	1.625
757.79	1.625
757.98	1.627
758.17	1.629
758.36	1.630
758.56	1.632
758.75	1.634
758.94	1.633
759.13	1.633
759.32	1.633
759.51	1.631
759.70	1.630
759.89	1.632
760.08	1.629
760.27	1.632
760.46	1.635
760.65	1.632
760.84	1.632
761.03	1.631
761.22	1.632
761.41	1.631
761.60	1.633
761.79	1.634
761.98	1.634
762.17	1.634
762.36	1.635
762.55	1.636
762.74	1.635
762.93	1.637
763.12	1.635
763.31	1.638
763.50	1.637
763.69	1.637
763.88	1.637
764.07	1.640
764.26	1.638
764.45	1.636
764.64	1.641
764.83	1.640
765.02	1.641
765.21	1.641
765.40	1.639
765.59	1.640
765.78	1.642
765.97	1.639
766.16	1.637
766.35	1.638
766.54	1.638
766.73	1.636
766.92	1.638
767.11	1.640
767.30	1.637
767.49	1.636
767.68	1.635
767.87	1.634
768.06	1.633
768.25	1.631
768.44	1.631
768.63	1.630
768.82	1.630
769.01	1.629
769.20	1.629
769.39	1.628
769.58	1.625
769.77	1.626
769.96	1.628
770.15	1.628
770.34	1.627
770.53	1.629
770.72	1.630
770.91	1.629
771.10	1.630
771.29	1.631
771.47	1.631
771.66	1.633
771.85	1.632
772.04	1.635
772.23	1.636
772.42	1.639
772.61	1.642
772.80	1.641
772.99	1.640
773.18	1.641
773.37	1.643
773.56	1.646
773.75	1.645
773.94	1.646
774.13	1.648
774.31	1.648
774.50	1.644
774.69	1.645
774.88	1.644
775.07	1.642
775.26	1.639
775.45	1.639
775.64	1.641
775.83	1.643
776.02	1.641
776.21	1.642
776.40	1.638
776.58	1.634
776.77	1.636
776.96	1.638
777.15	1.640
777.34	1.642
777.53	1.641
777.72	1.641
777.91	1.639
778.10	1.637
778.28	1.637
778.47	1.641
778.66	1.641
778.85	1.641
779.04	1.643
779.23	1.644
779.42	1.644
779.61	1.642
779.79	1.643
779.98	1.641
780.17	1.641
780.36	1.643
780.55	1.647
780.74	1.647
780.93	1.646
781.12	1.645
781.30	1.645
781.49	1.643
781.68	1.641
781.87	1.641
782.06	1.641
782.25	1.642
782.44	1.640
782.62	1.639
782.81	1.641
783.00	1.640
783.19	1.642
783.38	1.643
783.57	1.644
783.75	1.645
783.94	1.645
784.13	1.644
784.32	1.643
784.51	1.640
784.70	1.639
784.88	1.640
785.07	1.637
785.26	1.634
785.45	1.637
785.64	1.641
785.83	1.641
786.01	1.642
786.20	1.640
786.39	1.641
786.58	1.640
786.77	1.639
786.95	1.640
787.14	1.638
787.33	1.637
787.52	1.633
787.71	1.630
787.90	1.632
788.08	1.635
788.27	1.637
788.46	1.636
788.65	1.632
788.84	1.631
789.02	1.630
789.21	1.630
789.40	1.629
789.59	1.627
789.77	1.628
789.96	1.626
790.15	1.622
790.34	1.621
790.53	1.621
790.71	1.622
790.90	1.624
791.09	1.626
791.28	1.628
791.46	1.632
791.65	1.632
791.84	1.632
792.03	1.630
792.22	1.629
792.40	1.632
792.59	1.636
792.78	1.637
792.97	1.641
793.15	1.645
793.34	1.645
793.53	1.647
793.72	1.648
793.90	1.649
794.09	1.654
794.28	1.657
794.47	1.657
794.65	1.654
794.84	1.653
795.03	1.653
795.22	1.653
795.40	1.651
795.59	1.654
795.78	1.656
795.97	1.656
796.15	1.655
796.34	1.655
796.53	1.655
796.71	1.655
796.90	1.652
797.09	1.650
797.28	1.650
797.46	1.645
797.65	1.645
797.84	1.647
798.02	1.646
798.21	1.643
798.40	1.647
798.59	1.648
798.77	1.646
798.96	1.646
799.15	1.645
799.33	1.648
799.52	1.646
799.71	1.643
799.90	1.645
800.08	1.646
800.27	1.646
800.46	1.648
800.64	1.647
800.83	1.649
801.02	1.651
801.20	1.650
801.39	1.653
801.58	1.652
801.76	1.652
801.95	1.654
802.14	1.653
802.32	1.648
802.51	1.650
802.70	1.653
802.88	1.653
803.07	1.650
803.26	1.650
803.44	1.652
803.63	1.655
803.82	1.654
804.00	1.653
804.19	1.653
804.38	1.654
804.56	1.652
804.75	1.652
804.94	1.650
805.12	1.648
805.31	1.649
805.50	1.647
805.68	1.643
805.87	1.643
806.06	1.645
806.24	1.646
806.43	1.646
806.62	1.642
806.80	1.643
806.99	1.647
807.17	1.646
807.36	1.644
807.55	1.642
807.73	1.642
807.92	1.646
808.11	1.647
808.29	1.645
808.48	1.647
808.66	1.648
808.85	1.650
809.04	1.652
809.22	1.652
809.41	1.652
809.59	1.655
809.78	1.653
809.97	1.655
810.15	1.656
810.34	1.655
810.53	1.657
810.71	1.656
810.90	1.653
811.08	1.655
811.27	1.657
811.45	1.654
811.64	1.655
811.83	1.654
812.01	1.652
812.20	1.651
812.38	1.651
812.57	1.652
812.76	1.651
812.94	1.650
813.13	1.650
813.31	1.651
813.50	1.653
813.68	1.655
813.87	1.654
814.06	1.653
814.24	1.653
814.43	1.653
814.61	1.655
814.80	1.656
814.98	1.655
815.17	1.657
815.36	1.658
815.54	1.657
815.73	1.654
815.91	1.653
816.10	1.655
816.28	1.654
816.47	1.653
816.65	1.652
816.84	1.657
817.03	1.657
817.21	1.654
817.40	1.652
817.58	1.652
817.77	1.653
817.95	1.653
818.14	1.650
818.32	1.650
818.51	1.650
818.69	1.651
818.88	1.652
819.06	1.649
819.25	1.650
819.43	1.652
819.62	1.652
819.80	1.654
819.99	1.651
820.18	1.654
820.36	1.655
820.55	1.656
820.73	1.655
820.92	1.657
821.10	1.659
821.29	1.658
821.47	1.658
821.66	1.659
821.84	1.659
822.03	1.659
822.21	1.660
822.40	1.660
822.58	1.657
822.77	1.656
822.95	1.657
823.14	1.657
823.32	1.657
823.50	1.658
823.69	1.658
823.87	1.659
824.06	1.656
824.24	1.656
824.43	1.657
824.61	1.655
824.80	1.652
824.98	1.651
825.17	1.655
825.35	1.656
825.54	1.654
825.72	1.658
825.91	1.660
826.09	1.658
826.28	1.658
826.46	1.661
826.64	1.661
826.83	1.662
827.01	1.660
827.20	1.659
827.38	1.661
827.57	1.658
827.75	1.660
827.94	1.658
828.12	1.659
828.31	1.656
828.49	1.656
828.67	1.655
828.86	1.656
829.04	1.653
829.23	1.650
829.41	1.650
829.60	1.646
829.78	1.647
829.96	1.648
830.15	1.648
830.33	1.649
830.52	1.652
830.70	1.652
830.88	1.653
831.07	1.655
831.25	1.654
831.44	1.655
831.62	1.654
831.81	1.657
831.99	1.657
832.17	1.655
832.36	1.655
832.54	1.655
832.73	1.656
832.91	1.654
833.09	1.655
833.28	1.656
833.46	1.660
833.65	1.660
833.83	1.657
834.01	1.660
834.20	1.660
834.38	1.657
834.56	1.656
834.75	1.654
834.93	1.655
835.12	1.657
835.30	1.660
835.48	1.662
835.67	1.661
835.85	1.663
836.03	1.668
836.22	1.669
836.40	1.669
836.59	1.672
836.77	1.672
836.95	1.672
837.14	1.670
837.32	1.671
837.50	1.670
837.69	1.672
837.87	1.668
838.05	1.667
838.24	1.666
838.42	1.666
838.60	1.672
838.79	1.668
838.97	1.666
839.15	1.665
839.34	1.664
839.52	1.665
839.70	1.664
839.89	1.660
840.07	1.660
840.25	1.664
840.44	1.664
840.62	1.666
840.80	1.667
840.99	1.667
841.17	1.666
841.35	1.666
841.54	1.667
841.72	1.667
841.90	1.663
842.09	1.665
842.27	1.664
842.45	1.661
842.64	1.663
842.82	1.664
843.00	1.659
843.19	1.660
843.37	1.661
843.55	1.662
843.73	1.664
843.92	1.665
844.10	1.663
844.28	1.663
844.47	1.661
844.65	1.660
844.83	1.661
845.01	1.659
845.20	1.655
845.38	1.656
845.56	1.660
845.75	1.665
845.93	1.663
846.11	1.666
846.29	1.666
846.48	1.665
846.66	1.666
846.84	1.669
847.02	1.666
847.21	1.665
847.39	1.661
847.57	1.661
847.76	1.662
847.94	1.659
848.12	1.656
848.30	1.660
848.49	1.662
848.67	1.662
848.85	1.665
849.03	1.668
849.22	1.668
849.40	1.667
849.58	1.663
849.76	1.663
849.95	1.661
850.13	1.661
850.31	1.661
850.49	1.662
850.67	1.661
850.86	1.664
851.04	1.665
851.22	1.666
851.40	1.667
851.59	1.665
851.77	1.666
851.95	1.667
852.13	1.663
852.31	1.663
852.50	1.663
852.68	1.667
852.86	1.667
853.04	1.667
853.23	1.666
853.41	1.666
853.59	1.667
853.77	1.667
853.95	1.671
854.14	1.671
854.32	1.671
854.50	1.672
854.68	1.670
854.86	1.670
855.04	1.669
855.23	1.667
855.41	1.664
855.59	1.663
855.77	1.661
855.95	1.665
856.14	1.664
856.32	1.663
856.50	1.658
856.68	1.662
856.86	1.662
857.04	1.664
857.23	1.665
857.41	1.662
857.59	1.662
857.77	1.657
857.95	1.658
858.13	1.656
858.32	1.658
858.50	1.662
858.68	1.660
858.86	1.662
859.04	1.667
859.22	1.673
859.41	1.675
859.59	1.681
859.77	1.681
859.95	1.679
860.13	1.680
860.31	1.679
860.49	1.675
860.68	1.677
860.86	1.677
861.04	1.679
861.22	1.679
861.40	1.680
861.58	1.683
861.76	1.685
861.94	1.683
862.13	1.684
862.31	1.682
862.49	1.684
862.67	1.684
862.85	1.681
863.03	1.678
863.21	1.681
863.39	1.678
863.57	1.677
863.76	1.681
863.94	1.683
864.12	1.684
864.30	1.685
864.48	1.682
864.66	1.683
864.84	1.682
865.02	1.683
865.20	1.682
865.38	1.681
865.57	1.677
865.75	1.681
865.93	1.678
866.11	1.676
866.29	1.676
866.47	1.675
866.65	1.675
866.83	1.673
867.01	1.671
867.19	1.665
867.37	1.664
867.55	1.667
867.73	1.664
867.92	1.667
868.10	1.666
868.28	1.667
868.46	1.664
868.64	1.661
868.82	1.661
869.00	1.662
869.18	1.661
869.36	1.662
869.54	1.663
869.72	1.664
869.90	1.665
870.08	1.665
870.26	1.663
870.44	1.662
870.62	1.662
870.80	1.661
870.98	1.665
871.16	1.664
871.34	1.661
871.53	1.665
871.71	1.662
871.89	1.661
872.07	1.662
872.25	1.665
872.43	1.668
872.61	1.668
872.79	1.667
872.97	1.667
873.15	1.667
873.33	1.666
873.51	1.665
873.69	1.666
873.87	1.665
874.05	1.667
874.23	1.666
874.41	1.668
874.59	1.667
874.77	1.668
874.95	1.669
875.13	1.666
875.31	1.665
875.49	1.662
875.67	1.664
875.85	1.662
876.03	1.658
876.21	1.656
876.39	1.660
876.57	1.660
876.75	1.663
876.93	1.664
877.11	1.665
877.29	1.666
877.47	1.666
877.65	1.664
877.82	1.666
878.00	1.667
878.18	1.667
878.36	1.667
878.54	1.668
878.72	1.667
878.90	1.667
879.08	1.665
879.26	1.668
879.44	1.666
879.62	1.666
879.80	1.667
879.98	1.670
880.16	1.667
880.34	1.666
880.52	1.664
880.70	1.667
880.88	1.666
881.06	1.662
881.24	1.662
881.42	1.664
881.59	1.663
881.77	1.665
881.95	1.666
882.13	1.669
882.31	1.668
882.49	1.671
882.67	1.675
882.85	1.675
883.03	1.673
883.21	1.676
883.39	1.677
883.57	1.677
883.75	1.676
883.92	1.678
884.10	1.680
884.28	1.678
884.46	1.673
884.64	1.672
884.82	1.675
885.00	1.674
885.18	1.677
885.36	1.675
885.54	1.675
885.71	1.674
885.89	1.673
886.07	1.670
886.25	1.669
886.43	1.668
886.61	1.670
886.79	1.670
886.97	1.671
887.15	1.671
887.32	1.671
887.50	1.672
887.68	1.674
887.86	1.672
888.04	1.674
888.22	1.676
888.40	1.675
888.57	1.676
888.75	1.679
888.93	1.677
889.11	1.678
889.29	1.677
889.47	1.677
889.65	1.676
889.82	1.677
890.00	1.680
890.18	1.678
890.36	1.675
890.54	1.675
890.72	1.675
890.90	1.675
891.07	1.675
891.25	1.676
891.43	1.675
891.61	1.677
891.79	1.675
891.97	1.677
892.14	1.676
892.32	1.679
892.50	1.676
892.68	1.676
892.86	1.675
893.03	1.675
893.21	1.674
893.39	1.674
893.57	1.675
893.75	1.674
893.93	1.679
894.10	1.680
894.28	1.679
894.46	1.677
894.64	1.680
894.82	1.680
894.99	1.678
895.17	1.678
895.35	1.679
895.53	1.682
895.71	1.681
895.88	1.680
896.06	1.680
896.24	1.679
896.42	1.676
896.59	1.675
896.77	1.676
896.95	1.681
897.13	1.682
897.31	1.684
897.48	1.684
897.66	1.681
897.84	1.684
898.02	1.686
898.19	1.689
898.37	1.686
898.55	1.686
898.73	1.687
898.91	1.687
899.08	1.688
899.26	1.686
899.44	1.687
899.62	1.689
899.79	1.690
899.97	1.691
900.15	1.693
900.33	1.695
900.50	1.698
900.68	1.694
900.86	1.693
901.04	1.692
901.21	1.692
901.39	1.693
901.57	1.691
901.74	1.690
901.92	1.689
902.10	1.687
902.28	1.685
902.45	1.685
902.63	1.683
902.81	1.680
902.99	1.682
903.16	1.682
903.34	1.680
903.52	1.678
903.69	1.677
903.87	1.677
904.05	1.676
904.22	1.676
904.40	1.677
904.58	1.677
904.76	1.677
904.93	1.676
905.11	1.677
905.29	1.675
905.46	1.675
905.64	1.674
905.82	1.675
905.99	1.676
906.17	1.679
906.35	1.678
906.53	1.677
906.70	1.677
906.88	1.676
907.06	1.677
907.23	1.679
907.41	1.678
907.59	1.679
907.76	1.679
907.94	1.677
908.12	1.677
908.29	1.678
908.47	1.677
908.65	1.674
908.82	1.676
909.00	1.676
909.18	1.676
909.35	1.676
909.53	1.679
909.71	1.679
909.88	1.678
910.06	1.680
910.23	1.680
910.41	1.681
910.59	1.681
910.76	1.682
910.94	1.680
911.12	1.681
911.29	1.682
911.47	1.683
911.65	1.683
911.82	1.683
912.00	1.685
912.17	1.686
912.35	1.689
912.53	1.686
912.70	1.687
912.88	1.687
913.06	1.689
913.23	1.685
913.41	1.684
913.58	1.684
913.76	1.683
913.94	1.686
914.11	1.683
914.29	1.681
914.46	1.680
914.64	1.679
914.82	1.680
914.99	1.679
915.17	1.677
915.34	1.681
915.52	1.680
915.70	1.681
915.87	1.682
916.05	1.683
916.22	1.685
916.40	1.687
916.57	1.685
916.75	1.683
916.93	1.685
917.10	1.687
917.28	1.687
917.45	1.687
917.63	1.688
917.80	1.690
917.98	1.693
918.16	1.691
918.33	1.695
918.51	1.695
918.68	1.694
918.86	1.695
919.03	1.689
919.21	1.689
919.39	1.689
919.56	1.686
919.74	1.685
919.91	1.684
920.09	1.680
920.26	1.682
920.44	1.682
920.61	1.683
920.79	1.683
920.96	1.681
921.14	1.680
921.31	1.679
921.49	1.679
921.67	1.682
921.84	1.685
922.02	1.681
922.19	1.680
922.37	1.684
922.54	1.684
922.72	1.686
922.89	1.685
923.07	1.684
923.24	1.683
923.42	1.686
923.59	1.688
923.77	1.690
923.94	1.692
924.12	1.688
924.29	1.690
924.47	1.690
924.64	1.688
924.82	1.689
924.99	1.692
925.17	1.698
925.34	1.693
925.52	1.694
925.69	1.696
925.87	1.697
926.04	1.697
926.22	1.698
926.39	1.700
926.57	1.699
926.74	1.699
926.91	1.698
927.09	1.697
927.26	1.695
927.44	1.696
927.61	1.698
927.79	1.704
927.96	1.703
928.14	1.704
928.31	1.710
928.49	1.713
928.66	1.708
928.84	1.700
929.01	1.704
929.18	1.704
929.36	1.700
929.53	1.701
929.71	1.699
929.88	1.706
930.06	1.704
930.23	1.708
930.41	1.707
930.58	1.711
930.75	1.709
930.93	1.711
931.10	1.707
931.28	1.703
931.45	1.703
931.63	1.702
931.80	1.703
931.97	1.699
932.15	1.698
932.32	1.698
932.50	1.701
932.67	1.700
932.84	1.697
933.02	1.700
933.19	1.698
933.37	1.697
933.54	1.692
933.71	1.691
933.89	1.690
934.06	1.690
934.24	1.685
934.41	1.684
934.58	1.684
934.76	1.685
934.93	1.689
935.11	1.683
935.28	1.686
935.45	1.683
935.63	1.682
935.80	1.685
935.98	1.685
936.15	1.687
936.32	1.686
936.50	1.688
936.67	1.687
936.84	1.688
937.02	1.684
937.19	1.686
937.36	1.689
937.54	1.686
937.71	1.693
937.89	1.697
938.06	1.698
938.23	1.699
938.41	1.699
938.58	1.697
938.75	1.702
938.93	1.702
939.10	1.704
939.27	1.707
939.45	1.703
939.62	1.702
939.79	1.699
939.97	1.693
940.14	1.695
940.31	1.698
940.49	1.698
940.66	1.702
940.83	1.697
941.01	1.697
941.18	1.697
941.35	1.692
941.53	1.691
941.70	1.686
941.87	1.682
942.05	1.684
942.22	1.685
942.39	1.688
942.57	1.686
942.74	1.688
942.91	1.686
943.08	1.684
943.26	1.685
943.43	1.684
943.60	1.690
943.78	1.687
943.95	1.685
944.12	1.686
944.29	1.687
944.47	1.688
944.64	1.687
944.81	1.692
944.99	1.690
945.16	1.694
945.33	1.697
945.50	1.700
945.68	1.695
945.85	1.697
946.02	1.690
946.20	1.690
946.37	1.687
946.54	1.689
946.71	1.691
946.89	1.690
947.06	1.694
947.23	1.695
947.40	1.695
947.58	1.696
947.75	1.698
947.92	1.698
948.09	1.696
948.27	1.700
948.44	1.699
948.61	1.700
948.78	1.697
948.96	1.696
949.13	1.693
949.30	1.696
949.47	1.697
949.65	1.698
949.82	1.699
949.99	1.699
950.16	1.700
950.33	1.704
950.51	1.702
950.68	1.696
950.85	1.700
951.02	1.706
951.20	1.706
951.37	1.705
951.54	1.703
951.71	1.708
951.88	1.709
952.06	1.706
952.23	1.704
952.40	1.700
952.57	1.703
952.74	1.707
952.92	1.710
953.09	1.708
953.26	1.712
953.43	1.708
953.60	1.710
953.77	1.710
953.95	1.710
954.12	1.717
954.29	1.719
954.46	1.717
954.63	1.721
954.81	1.726
954.98	1.728
955.15	1.733
955.32	1.734
955.49	1.728
955.66	1.728
955.84	1.735
956.01	1.746
956.18	1.747
956.35	1.748
956.52	1.741
956.69	1.749
956.87	1.741
957.04	1.747
957.21	1.747
957.38	1.748
957.55	1.740
957.72	1.735
957.89	1.737
958.07	1.732
958.24	1.720
958.41	1.715
958.58	1.706
958.75	1.700
958.92	1.700
959.09	1.701
959.26	1.699
959.44	1.699
959.61	1.692
959.78	1.691
959.95	1.688
960.12	1.693
960.29	1.688
960.46	1.691
960.63	1.691
960.81	1.694
960.98	1.693
961.15	1.697
961.32	1.697
961.49	1.688
961.66	1.696
961.83	1.700
962.00	1.693
962.17	1.698
962.34	1.707
962.52	1.699
962.69	1.699
962.86	1.705
963.03	1.711
963.20	1.712
963.37	1.703
963.54	1.703
963.71	1.699
963.88	1.698
964.05	1.698
964.22	1.697
964.39	1.688
964.56	1.688
964.74	1.689
964.91	1.699
965.08	1.707
965.25	1.700
965.42	1.701
965.59	1.708
965.76	1.703
965.93	1.692
966.10	1.700
966.27	1.690
966.44	1.692
966.61	1.682
966.78	1.685
966.95	1.687
967.12	1.690
967.29	1.704
967.46	1.706
967.63	1.707
967.80	1.704
967.97	1.710
968.14	1.714
968.32	1.708
968.49	1.707
968.66	1.703
968.83	1.708
969.00	1.702
969.17	1.704
969.34	1.702
969.51	1.701
969.68	1.688
969.85	1.695
970.02	1.681
970.19	1.683
970.36	1.681
970.53	1.689
970.70	1.685
970.87	1.682
971.04	1.679
971.21	1.681
971.38	1.683
971.55	1.682
971.72	1.683
971.89	1.686
972.06	1.683
972.23	1.691
972.40	1.686
972.57	1.689
972.74	1.685
972.91	1.685
973.07	1.689
973.24	1.700
973.41	1.705
973.58	1.709
973.75	1.712
973.92	1.717
974.09	1.726
974.26	1.729
974.43	1.726
974.60	1.736
974.77	1.737
974.94	1.725
975.11	1.730
975.28	1.720
975.45	1.722
975.62	1.721
975.79	1.713
975.96	1.716
976.13	1.717
976.30	1.715
976.47	1.720
976.64	1.724
976.80	1.728
976.97	1.727
977.14	1.734
977.31	1.733
977.48	1.735
977.65	1.729
977.82	1.734
977.99	1.730
978.16	1.724
978.33	1.720
978.50	1.734
978.67	1.735
978.83	1.732
979.00	1.725
979.17	1.727
979.34	1.730
979.51	1.727
979.68	1.732
979.85	1.738
980.02	1.745
980.19	1.739
980.36	1.736
980.52	1.744
980.69	1.741
980.86	1.739
981.03	1.742
981.20	1.736
981.37	1.739
981.54	1.738
981.71	1.740
981.88	1.742
982.04	1.741
982.21	1.725
982.38	1.735
982.55	1.739
982.72	1.738
982.89	1.745
983.06	1.740
983.22	1.740
983.39	1.740
983.56	1.752
983.73	1.751
983.90	1.752
984.07	1.735
984.24	1.748
984.40	1.748
984.57	1.734
984.74	1.738
984.91	1.732
985.08	1.730
985.25	1.727
985.41	1.731
985.58	1.737
985.75	1.751
985.92	1.746
986.09	1.752
986.26	1.758
986.42	1.745
986.59	1.759
986.76	1.749
986.93	1.747
987.10	1.733
987.27	1.734
987.43	1.744
987.60	1.752
987.77	1.748
987.94	1.744
988.11	1.743
988.27	1.743
988.44	1.741
988.61	1.748
988.78	1.748
988.95	1.741
989.11	1.722
989.28	1.727
989.45	1.746
989.62	1.743
989.79	1.725
989.95	1.728
990.12	1.720
990.29	1.727
990.46	1.722
990.62	1.720
990.79	1.722
990.96	1.706
991.13	1.701
991.30	1.697
991.46	1.714
991.63	1.703
991.80	1.696
991.97	1.693
992.13	1.685
992.30	1.675
992.47	1.676
992.64	1.692
992.80	1.688
992.97	1.682
993.14	1.690
993.31	1.688
993.47	1.705
993.64	1.718
993.81	1.727
993.98	1.743
994.14	1.731
994.31	1.734
994.48	1.731
994.64	1.749
994.81	1.745
994.98	1.726
995.15	1.749
995.31	1.762
995.48	1.777
995.65	1.783
995.82	1.812
995.98	1.816
996.15	1.812
996.32	1.781
996.48	1.768
996.65	1.756
996.82	1.776
996.99	1.769
997.15	1.757
997.32	1.741
997.49	1.747
997.65	1.778
997.82	1.779
997.99	1.804
998.15	1.794
998.32	1.793
998.49	1.803
998.65	1.802
998.82	1.785
998.99	1.777
999.15	1.795
999.32	1.772
999.49	1.768
999.65	1.765
999.82	1.807
999.99	1.805
1000.15	1.801
1000.32	1.804
1000.49	1.804
1000.65	1.808
1000.82	1.805
1000.99	1.791
1001.15	1.779
1001.32	1.775
1001.49	1.767
1001.65	1.761
1001.82	1.765
1001.99	1.774
1002.15	1.762
1002.32	1.785
1002.49	1.775
1002.65	1.745
1002.82	1.767
1002.99	1.777
1003.15	1.796
1003.32	1.785
1003.48	1.789
1003.65	1.792
1003.82	1.784
1003.98	1.767
1004.15	1.756
1004.32	1.766
1004.48	1.779
1004.65	1.783
1004.81	1.794
1004.98	1.791
1005.15	1.808
1005.31	1.820
1005.48	1.815
1005.64	1.828
1005.81	1.820
1005.98	1.823
1006.14	1.832
1006.31	1.840
1006.47	1.823
1006.64	1.807
1006.81	1.810
1006.97	1.806
1007.14	1.790
1007.30	1.806
1007.47	1.821
1007.63	1.828
1007.80	1.828
1007.97	1.820
1008.13	1.796
1008.30	1.778
1008.46	1.785
1008.63	1.776
1008.79	1.756
1008.96	1.772
1009.13	1.754
1009.29	1.756
1009.46	1.761
1009.62	1.761
1009.79	1.743
1009.95	1.752
1010.12	1.740
1010.28	1.744
1010.45	1.744
1010.62	1.749
1010.78	1.732
1010.95	1.755
1011.11	1.758
1011.28	1.749
1011.44	1.740
1011.61	1.751
1011.77	1.755
1011.94	1.743
1012.10	1.750
1012.27	1.769
1012.43	1.745
1012.60	1.757
1012.76	1.765
1012.93	1.769
1013.10	1.747
1013.26	1.738
1013.43	1.751
1013.59	1.766
1013.76	1.744
1013.92	1.758
1014.09	1.755
1014.25	1.762
1014.42	1.744
1014.58	1.751
1014.75	1.755
1014.91	1.759
1015.08	1.757
1015.24	1.757
1015.41	1.733
1015.57	1.714
1015.73	1.716
1015.90	1.724
1016.06	1.747
1016.23	1.728
1016.39	1.735
1016.56	1.772
1016.72	1.774
1016.89	1.783
1017.05	1.784
1017.22	1.795
1017.38	1.795
1017.55	1.825
1017.71	1.791
1017.88	1.794
1018.04	1.797
1018.21	1.788
1018.37	1.768
1018.53	1.786
1018.70	1.792
1018.86	1.821
1019.03	1.805
1019.19	1.794
1019.36	1.808
1019.52	1.792
1019.69	1.807
1019.85	1.770
1020.01	1.763
1020.18	1.754
1020.34	1.720
1020.51	1.721
1020.67	1.734
1020.84	1.732
1021.00	1.699
1021.16	1.711
1021.33	1.700
1021.49	1.693
1021.66	1.691
1021.82	1.702
1021.98	1.686
1022.15	1.701
1022.31	1.686
1022.48	1.719
1022.64	1.699
1022.80	1.675
1022.97	1.660
1023.13	1.649
1023.30	1.664
1023.46	1.674
1023.62	1.686
1023.79	1.690
1023.95	1.687
1024.12	1.666
1024.28	1.663
1024.44	1.679
1024.61	1.688
1024.77	1.690
1024.93	1.675
1025.10	1.701
1025.26	1.706
1025.43	1.729
1025.59	1.739
1025.75	1.763
1025.92	1.723
1026.08	1.737
1026.24	1.734
1026.41	1.723
1026.57	1.721
1026.73	1.723
1026.90	1.727
1027.06	1.731
1027.23	1.725
1027.39	1.726
1027.55	1.747
1027.72	1.752
1027.88	1.769
1028.04	1.780
1028.21	1.760
1028.37	1.818
1028.53	1.808
1028.70	1.776
1028.86	1.789
1029.02	1.768
1029.19	1.736
1029.35	1.771
1029.51	1.786
1029.67	1.808
1029.84	1.842
1030.00	1.846
1030.16	1.860
1030.33	1.816
1030.49	1.789
1030.65	1.825
1030.82	1.826
1030.98	1.802
1031.14	1.762
1031.31	1.744
1031.47	1.774
1031.63	1.812
1031.79	1.775
1031.96	1.758
1032.12	1.797
1032.28	1.781
1032.45	1.773
1032.61	1.811
1032.77	1.798
1032.93	1.765
1033.10	1.740
1033.26	1.763
1033.42	1.761
1033.58	1.735
1033.75	1.740
1033.91	1.782
1034.07	1.798
1034.24	1.802
1034.40	1.786
1034.56	1.857
1034.72	1.863
1034.89	1.779
1035.05	1.754
1035.21	1.734
1035.37	1.776
1035.54	1.750
1035.70	1.729
1035.86	1.741
1036.02	1.725
1036.19	1.730
1036.35	1.760
1036.51	1.777
1036.67	1.742
1036.83	1.723
1037.00	1.727
1037.16	1.732
1037.32	1.729
1037.48	1.729
1037.65	1.706
1037.81	1.740
1037.97	1.704
1038.13	1.706
1038.29	1.729
1038.46	1.704
1038.62	1.711
1038.78	1.686
1038.94	1.669
1039.10	1.667
1039.27	1.670
1039.43	1.689
1039.59	1.711
1039.75	1.694
1039.91	1.710
1040.08	1.720
1040.24	1.762
1040.40	1.795
1040.56	1.796
1040.72	1.785
1040.89	1.734
1041.05	1.772
1041.21	1.753
1041.37	1.763
1041.53	1.795
1041.69	1.824
1041.86	1.913
1042.02	1.949
1042.18	1.933
1042.34	1.971
1042.50	1.989
1042.66	2.008
1042.83	2.085
1042.99	2.070
1043.15	2.094
1043.31	2.064
1043.47	2.075
1043.63	2.105
1043.79	2.131
1043.96	2.170
1044.12	2.064
1044.28	2.030
1044.44	1.994
1044.60	1.987
1044.76	2.016
1044.92	1.980
1045.09	1.978
1045.25	1.886
1045.41	-0.000
1045.57	1.954
1045.73	1.337
1045.89	1.352
1046.05	2.431
1046.21	1.524
1046.38	2.034
1046.54	1.922
1046.70	2.197
1046.86	1.362
>>>>>End Processed Spectral Data<<<<<
