SpectraSuite Data File
++++++++++++++++++++++++++++++++++++
Date: Mon May 06 14:16:29 CDT 2013
User: Students
Dark Spectrum Present: Yes
Reference Spectrum Present: Yes
Number of Sampled Component Spectra: 1
Spectrometers: USB4H00887
Integration Time (usec): 25000 (USB4H00887)
Spectra Averaged: 10 (USB4H00887)
Boxcar Smoothing: 10 (USB4H00887)
Correct for Electrical Dark: No (USB4H00887)
Strobe/Lamp Enabled: No (USB4H00887)
Correct for Detector Non-linearity: No (USB4H00887)
Correct for Stray Light: No (USB4H00887)
Number of Pixels in Processed Spectrum: 3648
>>>>>Begin Processed Spectral Data<<<<<
345.83	-0.079
346.05	-0.079
346.26	-0.079
346.48	-0.031
346.70	0.218
346.92	1.380
347.14	1.093
347.35	0.144
347.57	-0.000
347.79	0.309
348.01	0.177
348.23	0.243
348.44	0.485
348.66	1.171
348.88	1.339
349.10	-0.000
349.32	-0.000
349.53	-0.000
349.75	-0.000
349.97	-0.000
350.19	-0.000
350.41	-0.000
350.62	-0.000
350.84	-0.000
351.06	-0.000
351.28	-0.000
351.50	-0.000
351.71	-0.000
351.93	-0.000
352.15	-0.000
352.37	-0.000
352.58	-0.000
352.80	-0.000
353.02	-0.000
353.24	-0.000
353.46	-0.000
353.67	-0.000
353.89	-0.000
354.11	-0.000
354.33	-0.000
354.54	-0.000
354.76	-0.000
354.98	-0.000
355.20	-0.000
355.41	-0.000
355.63	-0.000
355.85	-0.000
356.07	2.197
356.28	-0.000
356.50	1.013
356.72	1.067
356.94	0.867
357.15	0.695
357.37	0.742
357.59	0.870
357.81	0.659
358.02	0.865
358.24	0.952
358.46	2.047
358.68	1.125
358.89	1.105
359.11	0.907
359.33	1.052
359.55	0.637
359.76	0.649
359.98	0.752
360.20	0.954
360.42	1.388
360.63	1.135
360.85	1.035
361.07	1.557
361.29	1.203
361.50	-0.000
361.72	-0.000
361.94	-0.000
362.15	-0.000
362.37	-0.000
362.59	-0.000
362.81	-0.000
363.02	-0.000
363.24	-0.000
363.46	-0.000
363.68	-0.000
363.89	-0.000
364.11	-0.000
364.33	-0.000
364.54	-0.000
364.76	-0.000
364.98	-0.000
365.20	-0.000
365.41	-0.000
365.63	-0.000
365.85	-0.000
366.06	-0.000
366.28	-0.000
366.50	-0.000
366.71	-0.000
366.93	-0.000
367.15	-0.000
367.37	-0.000
367.58	-0.000
367.80	-0.000
368.02	-0.000
368.23	-0.000
368.45	-0.000
368.67	-0.000
368.88	-0.000
369.10	-0.000
369.32	-0.000
369.53	-0.000
369.75	-0.000
369.97	-0.000
370.19	-0.000
370.40	-0.000
370.62	-0.000
370.84	-0.000
371.05	-0.000
371.27	-0.000
371.49	-0.000
371.70	-0.000
371.92	-0.000
372.14	-0.000
372.35	-0.000
372.57	-0.000
372.79	-0.000
373.00	-0.000
373.22	-0.000
373.44	-0.000
373.65	-0.000
373.87	-0.000
374.09	-0.000
374.30	-0.000
374.52	-0.000
374.74	-0.000
374.95	-0.000
375.17	-0.000
375.39	-0.000
375.60	-0.000
375.82	-0.000
376.04	-0.000
376.25	-0.000
376.47	-0.000
376.68	-0.000
376.90	-0.000
377.12	-0.000
377.33	-0.000
377.55	-0.000
377.77	-0.000
377.98	-0.000
378.20	-0.000
378.42	-0.000
378.63	-0.000
378.85	-0.000
379.07	-0.000
379.28	-0.000
379.50	-0.000
379.71	-0.000
379.93	-0.000
380.15	-0.000
380.36	-0.000
380.58	-0.000
380.80	-0.000
381.01	-0.000
381.23	-0.000
381.44	-0.000
381.66	-0.000
381.88	-0.000
382.09	-0.000
382.31	-0.000
382.53	-0.000
382.74	-0.000
382.96	-0.000
383.17	-0.000
383.39	-0.000
383.61	-0.000
383.82	-0.000
384.04	-0.000
384.25	-0.000
384.47	-0.000
384.69	-0.000
384.90	-0.000
385.12	-0.000
385.33	-0.000
385.55	-0.000
385.77	-0.000
385.98	-0.000
386.20	-0.000
386.41	-0.000
386.63	-0.000
386.85	-0.000
387.06	-0.000
387.28	-0.000
387.49	-0.000
387.71	-0.000
387.93	-0.000
388.14	-0.000
388.36	-0.000
388.57	-0.000
388.79	-0.000
389.01	-0.000
389.22	-0.000
389.44	-0.000
389.65	-0.000
389.87	-0.000
390.08	-0.000
390.30	-0.000
390.52	-0.000
390.73	-0.000
390.95	-0.000
391.16	-0.000
391.38	-0.000
391.59	-0.000
391.81	-0.000
392.03	-0.000
392.24	-0.000
392.46	-0.000
392.67	-0.000
392.89	-0.000
393.10	-0.000
393.32	-0.000
393.53	-0.000
393.75	-0.000
393.97	-0.000
394.18	-0.000
394.40	-0.000
394.61	-0.000
394.83	-0.000
395.04	-0.000
395.26	-0.000
395.47	-0.000
395.69	-0.000
395.91	-0.000
396.12	-0.000
396.34	-0.000
396.55	-0.000
396.77	-0.000
396.98	-0.000
397.20	2.233
397.41	2.113
397.63	1.981
397.84	2.835
398.06	-0.000
398.27	2.528
398.49	1.879
398.71	3.121
398.92	-0.000
399.14	-0.000
399.35	-0.000
399.57	-0.000
399.78	-0.000
400.00	-0.000
400.21	-0.000
400.43	-0.000
400.64	-0.000
400.86	-0.000
401.07	-0.000
401.29	-0.000
401.50	-0.000
401.72	-0.000
401.93	-0.000
402.15	-0.000
402.36	-0.000
402.58	-0.000
402.79	-0.000
403.01	-0.000
403.22	-0.000
403.44	-0.000
403.65	-0.000
403.87	-0.000
404.08	-0.000
404.30	-0.000
404.51	-0.000
404.73	-0.000
404.94	2.546
405.16	2.563
405.37	-0.000
405.59	-0.000
405.80	-0.000
406.02	-0.000
406.23	-0.000
406.45	-0.000
406.66	-0.000
406.88	-0.000
407.09	-0.000
407.31	-0.000
407.52	2.706
407.74	-0.000
407.95	-0.000
408.17	-0.000
408.38	-0.000
408.60	-0.000
408.81	1.916
409.03	-0.000
409.24	-0.000
409.45	-0.000
409.67	-0.000
409.88	-0.000
410.10	-0.000
410.31	-0.000
410.53	-0.000
410.74	-0.000
410.96	-0.000
411.17	-0.000
411.39	-0.000
411.60	-0.000
411.82	-0.000
412.03	-0.000
412.24	-0.000
412.46	-0.000
412.67	-0.000
412.89	-0.000
413.10	-0.000
413.32	-0.000
413.53	-0.000
413.75	-0.000
413.96	-0.000
414.17	-0.000
414.39	-0.000
414.60	-0.000
414.82	-0.000
415.03	-0.000
415.25	-0.000
415.46	-0.000
415.68	-0.000
415.89	-0.000
416.10	-0.000
416.32	-0.000
416.53	-0.000
416.75	-0.000
416.96	-0.000
417.18	-0.000
417.39	-0.000
417.60	-0.000
417.82	-0.000
418.03	-0.000
418.25	-0.000
418.46	-0.000
418.67	-0.000
418.89	-0.000
419.10	-0.000
419.32	-0.000
419.53	-0.000
419.75	-0.000
419.96	-0.000
420.17	-0.000
420.39	-0.000
420.60	-0.000
420.82	-0.000
421.03	-0.000
421.24	-0.000
421.46	-0.000
421.67	-0.000
421.89	-0.000
422.10	-0.000
422.31	-0.000
422.53	-0.000
422.74	-0.000
422.96	-0.000
423.17	-0.000
423.38	-0.000
423.60	-0.000
423.81	-0.000
424.03	-0.000
424.24	-0.000
424.45	-0.000
424.67	-0.000
424.88	-0.000
425.09	-0.000
425.31	-0.000
425.52	-0.000
425.74	-0.000
425.95	-0.000
426.16	-0.000
426.38	-0.000
426.59	-0.000
426.80	-0.000
427.02	-0.000
427.23	-0.000
427.45	-0.000
427.66	-0.000
427.87	-0.000
428.09	-0.000
428.30	-0.000
428.51	-0.000
428.73	-0.000
428.94	-0.000
429.15	-0.000
429.37	2.996
429.58	2.377
429.79	2.161
430.01	2.067
430.22	1.654
430.44	1.633
430.65	1.684
430.86	1.582
431.08	1.565
431.29	1.771
431.50	1.794
431.72	2.003
431.93	1.807
432.14	1.773
432.36	1.838
432.57	2.019
432.78	2.032
433.00	2.018
433.21	1.993
433.42	1.996
433.64	1.999
433.85	2.048
434.06	2.342
434.28	2.711
434.49	2.739
434.70	-0.000
434.92	2.358
435.13	2.513
435.34	2.014
435.56	2.027
435.77	2.072
435.98	2.050
436.20	1.859
436.41	2.127
436.62	1.756
436.83	1.671
437.05	1.648
437.26	1.587
437.47	1.583
437.69	1.663
437.90	1.712
438.11	1.703
438.33	1.679
438.54	1.631
438.75	1.580
438.97	1.603
439.18	1.601
439.39	1.635
439.60	1.587
439.82	1.690
440.03	1.714
440.24	1.744
440.46	1.579
440.67	1.567
440.88	1.621
441.10	1.742
441.31	1.844
441.52	1.855
441.73	1.987
441.95	1.864
442.16	1.805
442.37	1.815
442.58	1.776
442.80	1.701
443.01	1.725
443.22	1.849
443.44	1.880
443.65	1.799
443.86	1.956
444.07	1.995
444.29	1.934
444.50	2.056
444.71	1.887
444.92	2.275
445.14	2.375
445.35	2.373
445.56	2.214
445.78	2.061
445.99	2.214
446.20	2.181
446.41	2.977
446.63	2.322
446.84	2.118
447.05	1.950
447.26	2.111
447.48	2.051
447.69	2.044
447.90	1.869
448.11	1.896
448.33	1.857
448.54	1.815
448.75	1.795
448.96	1.691
449.18	1.717
449.39	1.683
449.60	1.642
449.81	1.586
450.03	1.611
450.24	1.545
450.45	1.521
450.66	1.482
450.87	1.445
451.09	1.526
451.30	1.514
451.51	1.566
451.72	1.568
451.94	1.554
452.15	1.504
452.36	1.517
452.57	1.543
452.78	1.524
453.00	1.538
453.21	1.540
453.42	1.561
453.63	1.537
453.85	1.513
454.06	1.536
454.27	1.506
454.48	1.509
454.69	1.556
454.91	1.549
455.12	1.568
455.33	1.589
455.54	1.553
455.75	1.560
455.97	1.600
456.18	1.587
456.39	1.608
456.60	1.647
456.81	1.647
457.03	1.682
457.24	1.679
457.45	1.707
457.66	1.773
457.87	1.810
458.09	1.867
458.30	1.813
458.51	1.805
458.72	1.831
458.93	1.805
459.15	1.784
459.36	1.788
459.57	1.766
459.78	1.780
459.99	1.779
460.20	1.784
460.42	1.795
460.63	1.864
460.84	1.839
461.05	1.766
461.26	1.791
461.47	1.746
461.69	1.688
461.90	1.656
462.11	1.586
462.32	1.556
462.53	1.531
462.74	1.533
462.96	1.506
463.17	1.521
463.38	1.519
463.59	1.495
463.80	1.471
464.01	1.489
464.23	1.496
464.44	1.480
464.65	1.460
464.86	1.438
465.07	1.431
465.28	1.445
465.49	1.478
465.71	1.473
465.92	1.488
466.13	1.510
466.34	1.496
466.55	1.518
466.76	1.542
466.97	1.568
467.19	1.563
467.40	1.565
467.61	1.549
467.82	1.543
468.03	1.595
468.24	1.620
468.45	1.595
468.66	1.569
468.88	1.576
469.09	1.576
469.30	1.565
469.51	1.565
469.72	1.568
469.93	1.554
470.14	1.546
470.35	1.536
470.57	1.553
470.78	1.566
470.99	1.579
471.20	1.548
471.41	1.544
471.62	1.582
471.83	1.585
472.04	1.576
472.25	1.578
472.47	1.564
472.68	1.541
472.89	1.530
473.10	1.529
473.31	1.532
473.52	1.544
473.73	1.566
473.94	1.559
474.15	1.535
474.36	1.528
474.57	1.519
474.79	1.533
475.00	1.517
475.21	1.504
475.42	1.493
475.63	1.498
475.84	1.494
476.05	1.475
476.26	1.480
476.47	1.484
476.68	1.486
476.89	1.470
477.10	1.479
477.32	1.478
477.53	1.482
477.74	1.481
477.95	1.457
478.16	1.447
478.37	1.442
478.58	1.441
478.79	1.432
479.00	1.431
479.21	1.428
479.42	1.417
479.63	1.417
479.84	1.422
480.05	1.429
480.26	1.425
480.47	1.421
480.69	1.434
480.90	1.441
481.11	1.444
481.32	1.459
481.53	1.461
481.74	1.471
481.95	1.478
482.16	1.469
482.37	1.490
482.58	1.488
482.79	1.493
483.00	1.499
483.21	1.507
483.42	1.509
483.63	1.496
483.84	1.509
484.05	1.510
484.26	1.509
484.47	1.511
484.68	1.510
484.89	1.517
485.10	1.503
485.31	1.492
485.52	1.483
485.73	1.469
485.94	1.481
486.15	1.475
486.37	1.468
486.58	1.494
486.79	1.490
487.00	1.485
487.21	1.480
487.42	1.479
487.63	1.480
487.84	1.480
488.05	1.484
488.26	1.479
488.47	1.482
488.68	1.484
488.89	1.473
489.10	1.472
489.31	1.471
489.52	1.475
489.73	1.490
489.94	1.496
490.15	1.497
490.36	1.482
490.57	1.488
490.78	1.496
490.99	1.471
491.20	1.463
491.41	1.459
491.62	1.463
491.83	1.465
492.04	1.460
492.25	1.464
492.45	1.466
492.66	1.478
492.87	1.473
493.08	1.472
493.29	1.480
493.50	1.483
493.71	1.493
493.92	1.494
494.13	1.480
494.34	1.475
494.55	1.475
494.76	1.485
494.97	1.490
495.18	1.485
495.39	1.491
495.60	1.491
495.81	1.494
496.02	1.497
496.23	1.497
496.44	1.506
496.65	1.505
496.86	1.507
497.07	1.498
497.28	1.503
497.49	1.499
497.70	1.503
497.91	1.503
498.12	1.504
498.32	1.497
498.53	1.511
498.74	1.514
498.95	1.522
499.16	1.520
499.37	1.511
499.58	1.511
499.79	1.509
500.00	1.522
500.21	1.527
500.42	1.513
500.63	1.520
500.84	1.514
501.05	1.513
501.26	1.519
501.46	1.523
501.67	1.526
501.88	1.533
502.09	1.529
502.30	1.530
502.51	1.528
502.72	1.531
502.93	1.533
503.14	1.533
503.35	1.534
503.56	1.534
503.77	1.538
503.97	1.537
504.18	1.548
504.39	1.546
504.60	1.558
504.81	1.567
505.02	1.558
505.23	1.569
505.44	1.570
505.65	1.563
505.86	1.561
506.07	1.567
506.27	1.572
506.48	1.576
506.69	1.572
506.90	1.566
507.11	1.581
507.32	1.579
507.53	1.585
507.74	1.588
507.95	1.590
508.15	1.593
508.36	1.586
508.57	1.584
508.78	1.584
508.99	1.586
509.20	1.579
509.41	1.578
509.62	1.578
509.82	1.582
510.03	1.586
510.24	1.592
510.45	1.589
510.66	1.579
510.87	1.577
511.08	1.588
511.29	1.593
511.49	1.585
511.70	1.577
511.91	1.583
512.12	1.571
512.33	1.564
512.54	1.566
512.75	1.579
512.95	1.576
513.16	1.576
513.37	1.569
513.58	1.578
513.79	1.591
514.00	1.585
514.20	1.582
514.41	1.578
514.62	1.581
514.83	1.573
515.04	1.581
515.25	1.577
515.46	1.577
515.66	1.575
515.87	1.576
516.08	1.581
516.29	1.575
516.50	1.588
516.71	1.597
516.91	1.601
517.12	1.594
517.33	1.602
517.54	1.607
517.75	1.606
517.95	1.609
518.16	1.608
518.37	1.602
518.58	1.604
518.79	1.612
519.00	1.615
519.20	1.623
519.41	1.621
519.62	1.630
519.83	1.628
520.04	1.628
520.24	1.622
520.45	1.618
520.66	1.624
520.87	1.623
521.08	1.629
521.28	1.627
521.49	1.634
521.70	1.629
521.91	1.619
522.12	1.630
522.32	1.635
522.53	1.624
522.74	1.635
522.95	1.639
523.16	1.634
523.36	1.629
523.57	1.626
523.78	1.625
523.99	1.621
524.20	1.625
524.40	1.627
524.61	1.636
524.82	1.635
525.03	1.635
525.23	1.638
525.44	1.628
525.65	1.621
525.86	1.624
526.06	1.629
526.27	1.632
526.48	1.625
526.69	1.622
526.90	1.613
527.10	1.614
527.31	1.604
527.52	1.610
527.73	1.609
527.93	1.611
528.14	1.606
528.35	1.607
528.56	1.600
528.76	1.608
528.97	1.607
529.18	1.608
529.39	1.608
529.59	1.605
529.80	1.603
530.01	1.605
530.22	1.607
530.42	1.601
530.63	1.604
530.84	1.601
531.05	1.595
531.25	1.603
531.46	1.599
531.67	1.611
531.88	1.608
532.08	1.613
532.29	1.616
532.50	1.624
532.70	1.627
532.91	1.623
533.12	1.618
533.33	1.617
533.53	1.611
533.74	1.603
533.95	1.603
534.15	1.612
534.36	1.610
534.57	1.603
534.78	1.612
534.98	1.610
535.19	1.609
535.40	1.611
535.60	1.611
535.81	1.616
536.02	1.606
536.23	1.608
536.43	1.602
536.64	1.601
536.85	1.600
537.05	1.596
537.26	1.604
537.47	1.600
537.67	1.599
537.88	1.609
538.09	1.606
538.30	1.610
538.50	1.603
538.71	1.607
538.92	1.607
539.12	1.599
539.33	1.595
539.54	1.597
539.74	1.598
539.95	1.605
540.16	1.602
540.36	1.606
540.57	1.609
540.78	1.612
540.98	1.620
541.19	1.621
541.40	1.618
541.60	1.613
541.81	1.613
542.02	1.608
542.22	1.609
542.43	1.615
542.64	1.608
542.84	1.612
543.05	1.617
543.26	1.625
543.46	1.624
543.67	1.633
543.88	1.629
544.08	1.631
544.29	1.631
544.50	1.633
544.70	1.627
544.91	1.623
545.12	1.617
545.32	1.613
545.53	1.606
545.74	1.608
545.94	1.610
546.15	1.610
546.35	1.615
546.56	1.613
546.77	1.617
546.97	1.619
547.18	1.618
547.39	1.612
547.59	1.610
547.80	1.610
548.01	1.607
548.21	1.608
548.42	1.605
548.62	1.608
548.83	1.608
549.04	1.616
549.24	1.613
549.45	1.621
549.65	1.612
549.86	1.615
550.07	1.616
550.27	1.614
550.48	1.613
550.69	1.615
550.89	1.620
551.10	1.618
551.30	1.615
551.51	1.615
551.72	1.617
551.92	1.611
552.13	1.614
552.33	1.615
552.54	1.613
552.75	1.616
552.95	1.611
553.16	1.609
553.36	1.608
553.57	1.612
553.78	1.607
553.98	1.617
554.19	1.619
554.39	1.616
554.60	1.618
554.80	1.620
555.01	1.617
555.22	1.612
555.42	1.611
555.63	1.618
555.83	1.622
556.04	1.626
556.25	1.629
556.45	1.628
556.66	1.628
556.86	1.634
557.07	1.626
557.27	1.628
557.48	1.625
557.68	1.621
557.89	1.622
558.10	1.619
558.30	1.613
558.51	1.617
558.71	1.617
558.92	1.616
559.12	1.618
559.33	1.621
559.54	1.621
559.74	1.615
559.95	1.608
560.15	1.608
560.36	1.599
560.56	1.600
560.77	1.602
560.97	1.599
561.18	1.594
561.38	1.600
561.59	1.600
561.79	1.603
562.00	1.604
562.21	1.604
562.41	1.607
562.62	1.607
562.82	1.604
563.03	1.604
563.23	1.599
563.44	1.598
563.64	1.596
563.85	1.599
564.05	1.600
564.26	1.603
564.46	1.600
564.67	1.605
564.87	1.602
565.08	1.599
565.28	1.600
565.49	1.603
565.69	1.602
565.90	1.601
566.10	1.598
566.31	1.598
566.51	1.596
566.72	1.589
566.92	1.586
567.13	1.581
567.33	1.584
567.54	1.588
567.74	1.588
567.95	1.585
568.15	1.582
568.36	1.583
568.56	1.583
568.77	1.582
568.97	1.579
569.18	1.580
569.38	1.578
569.59	1.578
569.79	1.578
570.00	1.579
570.20	1.579
570.41	1.580
570.61	1.579
570.82	1.580
571.02	1.588
571.23	1.595
571.43	1.603
571.64	1.600
571.84	1.598
572.05	1.592
572.25	1.593
572.45	1.589
572.66	1.591
572.86	1.594
573.07	1.595
573.27	1.591
573.48	1.590
573.68	1.595
573.89	1.593
574.09	1.593
574.30	1.588
574.50	1.586
574.70	1.588
574.91	1.590
575.11	1.593
575.32	1.587
575.52	1.587
575.73	1.585
575.93	1.583
576.14	1.580
576.34	1.585
576.54	1.588
576.75	1.590
576.95	1.588
577.16	1.585
577.36	1.582
577.57	1.586
577.77	1.581
577.97	1.577
578.18	1.578
578.38	1.574
578.59	1.577
578.79	1.575
579.00	1.574
579.20	1.574
579.40	1.570
579.61	1.574
579.81	1.570
580.02	1.564
580.22	1.568
580.42	1.570
580.63	1.569
580.83	1.564
581.04	1.564
581.24	1.563
581.45	1.560
581.65	1.560
581.85	1.560
582.06	1.563
582.26	1.562
582.47	1.561
582.67	1.568
582.87	1.565
583.08	1.564
583.28	1.563
583.48	1.562
583.69	1.561
583.89	1.556
584.10	1.557
584.30	1.558
584.50	1.555
584.71	1.557
584.91	1.557
585.12	1.556
585.32	1.553
585.52	1.555
585.73	1.557
585.93	1.558
586.13	1.561
586.34	1.562
586.54	1.568
586.75	1.569
586.95	1.565
587.15	1.570
587.36	1.575
587.56	1.574
587.76	1.573
587.97	1.576
588.17	1.578
588.37	1.580
588.58	1.579
588.78	1.581
588.98	1.578
589.19	1.576
589.39	1.583
589.60	1.586
589.80	1.583
590.00	1.587
590.21	1.588
590.41	1.583
590.61	1.581
590.82	1.576
591.02	1.568
591.22	1.562
591.43	1.562
591.63	1.563
591.83	1.564
592.04	1.566
592.24	1.566
592.44	1.563
592.65	1.565
592.85	1.568
593.05	1.568
593.26	1.570
593.46	1.572
593.66	1.570
593.86	1.568
594.07	1.567
594.27	1.562
594.47	1.560
594.68	1.561
594.88	1.560
595.08	1.558
595.29	1.564
595.49	1.570
595.69	1.572
595.90	1.570
596.10	1.569
596.30	1.567
596.50	1.563
596.71	1.564
596.91	1.565
597.11	1.561
597.32	1.565
597.52	1.562
597.72	1.562
597.93	1.563
598.13	1.566
598.33	1.568
598.53	1.569
598.74	1.571
598.94	1.571
599.14	1.574
599.35	1.576
599.55	1.577
599.75	1.576
599.95	1.573
600.16	1.573
600.36	1.570
600.56	1.569
600.76	1.571
600.97	1.573
601.17	1.566
601.37	1.569
601.58	1.567
601.78	1.568
601.98	1.567
602.18	1.567
602.39	1.563
602.59	1.562
602.79	1.567
602.99	1.565
603.20	1.566
603.40	1.565
603.60	1.567
603.80	1.566
604.01	1.566
604.21	1.568
604.41	1.571
604.61	1.576
604.82	1.579
605.02	1.580
605.22	1.577
605.42	1.583
605.62	1.582
605.83	1.583
606.03	1.585
606.23	1.581
606.43	1.581
606.64	1.584
606.84	1.584
607.04	1.579
607.24	1.579
607.45	1.576
607.65	1.579
607.85	1.577
608.05	1.577
608.25	1.579
608.46	1.579
608.66	1.576
608.86	1.576
609.06	1.575
609.26	1.576
609.47	1.580
609.67	1.579
609.87	1.579
610.07	1.578
610.28	1.575
610.48	1.578
610.68	1.576
610.88	1.579
611.08	1.578
611.29	1.578
611.49	1.582
611.69	1.582
611.89	1.579
612.09	1.577
612.29	1.578
612.50	1.577
612.70	1.575
612.90	1.574
613.10	1.574
613.30	1.571
613.51	1.571
613.71	1.572
613.91	1.573
614.11	1.571
614.31	1.574
614.51	1.576
614.72	1.576
614.92	1.575
615.12	1.574
615.32	1.573
615.52	1.575
615.72	1.576
615.93	1.577
616.13	1.575
616.33	1.579
616.53	1.581
616.73	1.577
616.93	1.578
617.14	1.576
617.34	1.572
617.54	1.577
617.74	1.577
617.94	1.575
618.14	1.572
618.34	1.573
618.55	1.571
618.75	1.572
618.95	1.574
619.15	1.574
619.35	1.578
619.55	1.584
619.75	1.583
619.96	1.583
620.16	1.581
620.36	1.584
620.56	1.582
620.76	1.576
620.96	1.578
621.16	1.579
621.36	1.583
621.57	1.584
621.77	1.581
621.97	1.581
622.17	1.583
622.37	1.581
622.57	1.584
622.77	1.586
622.97	1.586
623.18	1.587
623.38	1.586
623.58	1.580
623.78	1.578
623.98	1.576
624.18	1.570
624.38	1.574
624.58	1.572
624.78	1.570
624.98	1.571
625.19	1.572
625.39	1.573
625.59	1.569
625.79	1.568
625.99	1.571
626.19	1.570
626.39	1.566
626.59	1.568
626.79	1.568
626.99	1.567
627.19	1.566
627.40	1.566
627.60	1.567
627.80	1.567
628.00	1.565
628.20	1.570
628.40	1.571
628.60	1.570
628.80	1.573
629.00	1.571
629.20	1.577
629.40	1.576
629.60	1.573
629.80	1.578
630.00	1.578
630.20	1.580
630.41	1.579
630.61	1.581
630.81	1.579
631.01	1.579
631.21	1.580
631.41	1.580
631.61	1.579
631.81	1.581
632.01	1.584
632.21	1.588
632.41	1.586
632.61	1.587
632.81	1.589
633.01	1.590
633.21	1.590
633.41	1.587
633.61	1.585
633.81	1.585
634.01	1.588
634.21	1.590
634.41	1.585
634.61	1.585
634.81	1.588
635.01	1.588
635.22	1.588
635.42	1.587
635.62	1.588
635.82	1.590
636.02	1.587
636.22	1.589
636.42	1.584
636.62	1.586
636.82	1.586
637.02	1.585
637.22	1.587
637.42	1.594
637.62	1.592
637.82	1.594
638.02	1.595
638.22	1.588
638.42	1.589
638.62	1.590
638.82	1.595
639.02	1.594
639.22	1.597
639.42	1.596
639.62	1.596
639.82	1.598
640.02	1.598
640.22	1.598
640.42	1.595
640.62	1.596
640.82	1.593
641.02	1.595
641.22	1.597
641.42	1.591
641.61	1.590
641.81	1.596
642.01	1.597
642.21	1.597
642.41	1.603
642.61	1.600
642.81	1.600
643.01	1.598
643.21	1.597
643.41	1.596
643.61	1.599
643.81	1.602
644.01	1.601
644.21	1.600
644.41	1.601
644.61	1.602
644.81	1.605
645.01	1.605
645.21	1.604
645.41	1.603
645.61	1.607
645.81	1.607
646.01	1.604
646.21	1.599
646.40	1.602
646.60	1.600
646.80	1.600
647.00	1.600
647.20	1.598
647.40	1.599
647.60	1.602
647.80	1.599
648.00	1.599
648.20	1.596
648.40	1.595
648.60	1.597
648.80	1.599
649.00	1.599
649.20	1.598
649.39	1.596
649.59	1.598
649.79	1.600
649.99	1.600
650.19	1.598
650.39	1.606
650.59	1.602
650.79	1.600
650.99	1.601
651.19	1.603
651.39	1.604
651.58	1.603
651.78	1.598
651.98	1.598
652.18	1.597
652.38	1.599
652.58	1.598
652.78	1.596
652.98	1.594
653.18	1.594
653.38	1.597
653.57	1.597
653.77	1.599
653.97	1.595
654.17	1.596
654.37	1.596
654.57	1.593
654.77	1.594
654.97	1.599
655.16	1.601
655.36	1.600
655.56	1.601
655.76	1.601
655.96	1.603
656.16	1.604
656.36	1.604
656.56	1.603
656.75	1.605
656.95	1.606
657.15	1.604
657.35	1.603
657.55	1.604
657.75	1.607
657.95	1.607
658.14	1.609
658.34	1.606
658.54	1.608
658.74	1.609
658.94	1.608
659.14	1.608
659.34	1.605
659.53	1.607
659.73	1.607
659.93	1.609
660.13	1.609
660.33	1.607
660.53	1.608
660.72	1.609
660.92	1.610
661.12	1.609
661.32	1.615
661.52	1.612
661.72	1.611
661.91	1.610
662.11	1.608
662.31	1.607
662.51	1.610
662.71	1.609
662.90	1.608
663.10	1.611
663.30	1.609
663.50	1.609
663.70	1.607
663.90	1.606
664.09	1.603
664.29	1.599
664.49	1.603
664.69	1.602
664.89	1.600
665.08	1.599
665.28	1.603
665.48	1.598
665.68	1.600
665.88	1.598
666.07	1.597
666.27	1.598
666.47	1.602
666.67	1.601
666.87	1.601
667.06	1.601
667.26	1.599
667.46	1.601
667.66	1.600
667.85	1.604
668.05	1.605
668.25	1.605
668.45	1.608
668.65	1.606
668.84	1.605
669.04	1.611
669.24	1.614
669.44	1.613
669.63	1.615
669.83	1.621
670.03	1.629
670.23	1.628
670.42	1.627
670.62	1.625
670.82	1.622
671.02	1.622
671.22	1.624
671.41	1.622
671.61	1.622
671.81	1.624
672.01	1.624
672.20	1.625
672.40	1.627
672.60	1.630
672.80	1.630
672.99	1.631
673.19	1.629
673.39	1.625
673.58	1.622
673.78	1.624
673.98	1.622
674.18	1.617
674.37	1.616
674.57	1.617
674.77	1.619
674.97	1.622
675.16	1.628
675.36	1.629
675.56	1.630
675.75	1.630
675.95	1.629
676.15	1.627
676.35	1.624
676.54	1.626
676.74	1.626
676.94	1.626
677.13	1.628
677.33	1.626
677.53	1.629
677.73	1.632
677.92	1.630
678.12	1.628
678.32	1.627
678.51	1.624
678.71	1.625
678.91	1.625
679.11	1.625
679.30	1.622
679.50	1.624
679.70	1.627
679.89	1.622
680.09	1.624
680.29	1.625
680.48	1.628
680.68	1.629
680.88	1.629
681.07	1.629
681.27	1.629
681.47	1.626
681.66	1.627
681.86	1.627
682.06	1.628
682.25	1.628
682.45	1.628
682.65	1.632
682.84	1.633
683.04	1.629
683.24	1.628
683.43	1.626
683.63	1.627
683.83	1.626
684.02	1.630
684.22	1.629
684.42	1.629
684.61	1.626
684.81	1.622
685.01	1.625
685.20	1.627
685.40	1.624
685.60	1.631
685.79	1.627
685.99	1.626
686.19	1.623
686.38	1.622
686.58	1.623
686.77	1.624
686.97	1.625
687.17	1.624
687.36	1.627
687.56	1.630
687.76	1.628
687.95	1.625
688.15	1.626
688.34	1.629
688.54	1.626
688.74	1.630
688.93	1.628
689.13	1.630
689.33	1.631
689.52	1.636
689.72	1.630
689.91	1.635
690.11	1.636
690.31	1.636
690.50	1.639
690.70	1.640
690.89	1.638
691.09	1.637
691.29	1.640
691.48	1.639
691.68	1.640
691.87	1.637
692.07	1.637
692.27	1.635
692.46	1.636
692.66	1.637
692.85	1.636
693.05	1.640
693.25	1.633
693.44	1.631
693.64	1.630
693.83	1.632
694.03	1.631
694.22	1.630
694.42	1.632
694.62	1.630
694.81	1.630
695.01	1.630
695.20	1.628
695.40	1.630
695.59	1.626
695.79	1.622
695.99	1.626
696.18	1.628
696.38	1.628
696.57	1.627
696.77	1.628
696.96	1.628
697.16	1.627
697.36	1.629
697.55	1.631
697.75	1.629
697.94	1.630
698.14	1.628
698.33	1.628
698.53	1.630
698.72	1.630
698.92	1.629
699.11	1.630
699.31	1.631
699.51	1.628
699.70	1.631
699.90	1.633
700.09	1.631
700.29	1.629
700.48	1.631
700.68	1.632
700.87	1.631
701.07	1.632
701.26	1.634
701.46	1.638
701.65	1.636
701.85	1.634
702.04	1.635
702.24	1.633
702.43	1.635
702.63	1.634
702.82	1.635
703.02	1.635
703.21	1.636
703.41	1.638
703.60	1.639
703.80	1.637
703.99	1.639
704.19	1.640
704.38	1.643
704.58	1.644
704.77	1.644
704.97	1.643
705.16	1.645
705.36	1.642
705.55	1.641
705.75	1.640
705.94	1.643
706.14	1.645
706.33	1.646
706.53	1.647
706.72	1.644
706.92	1.643
707.11	1.644
707.31	1.647
707.50	1.643
707.70	1.643
707.89	1.643
708.09	1.640
708.28	1.642
708.48	1.641
708.67	1.641
708.86	1.641
709.06	1.641
709.25	1.639
709.45	1.638
709.64	1.636
709.84	1.641
710.03	1.639
710.23	1.638
710.42	1.638
710.62	1.636
710.81	1.642
711.00	1.643
711.20	1.645
711.39	1.643
711.59	1.644
711.78	1.647
711.98	1.644
712.17	1.643
712.37	1.644
712.56	1.644
712.75	1.643
712.95	1.643
713.14	1.641
713.34	1.641
713.53	1.640
713.73	1.640
713.92	1.639
714.11	1.640
714.31	1.641
714.50	1.645
714.70	1.646
714.89	1.644
715.08	1.644
715.28	1.644
715.47	1.641
715.67	1.643
715.86	1.637
716.06	1.641
716.25	1.642
716.44	1.640
716.64	1.642
716.83	1.643
717.03	1.645
717.22	1.648
717.41	1.650
717.61	1.651
717.80	1.655
717.99	1.652
718.19	1.651
718.38	1.647
718.58	1.645
718.77	1.642
718.96	1.643
719.16	1.640
719.35	1.638
719.55	1.643
719.74	1.644
719.93	1.646
720.13	1.649
720.32	1.650
720.51	1.651
720.71	1.648
720.90	1.647
721.10	1.645
721.29	1.642
721.48	1.640
721.68	1.640
721.87	1.640
722.06	1.641
722.26	1.641
722.45	1.646
722.64	1.645
722.84	1.648
723.03	1.649
723.22	1.652
723.42	1.654
723.61	1.653
723.80	1.651
724.00	1.653
724.19	1.649
724.38	1.649
724.58	1.649
724.77	1.653
724.96	1.653
725.16	1.655
725.35	1.656
725.54	1.661
725.74	1.662
725.93	1.661
726.12	1.663
726.32	1.665
726.51	1.664
726.70	1.666
726.90	1.665
727.09	1.667
727.28	1.671
727.48	1.671
727.67	1.670
727.86	1.672
728.06	1.670
728.25	1.672
728.44	1.673
728.64	1.676
728.83	1.672
729.02	1.675
729.21	1.673
729.41	1.675
729.60	1.667
729.79	1.668
729.99	1.668
730.18	1.665
730.37	1.663
730.56	1.661
730.76	1.663
730.95	1.659
731.14	1.656
731.34	1.652
731.53	1.652
731.72	1.655
731.91	1.653
732.11	1.653
732.30	1.656
732.49	1.657
732.69	1.656
732.88	1.659
733.07	1.656
733.26	1.656
733.46	1.658
733.65	1.661
733.84	1.660
734.03	1.657
734.23	1.661
734.42	1.662
734.61	1.665
734.80	1.662
735.00	1.665
735.19	1.664
735.38	1.664
735.57	1.664
735.77	1.663
735.96	1.665
736.15	1.666
736.34	1.664
736.54	1.658
736.73	1.656
736.92	1.656
737.11	1.658
737.31	1.658
737.50	1.654
737.69	1.654
737.88	1.657
738.07	1.659
738.27	1.658
738.46	1.661
738.65	1.660
738.84	1.660
739.04	1.661
739.23	1.664
739.42	1.664
739.61	1.663
739.80	1.661
740.00	1.663
740.19	1.664
740.38	1.664
740.57	1.670
740.76	1.670
740.96	1.667
741.15	1.666
741.34	1.668
741.53	1.671
741.72	1.672
741.92	1.669
742.11	1.675
742.30	1.674
742.49	1.675
742.68	1.673
742.88	1.676
743.07	1.673
743.26	1.672
743.45	1.671
743.64	1.675
743.84	1.675
744.03	1.672
744.22	1.674
744.41	1.674
744.60	1.677
744.79	1.677
744.99	1.678
745.18	1.677
745.37	1.676
745.56	1.676
745.75	1.674
745.94	1.677
746.14	1.672
746.33	1.674
746.52	1.673
746.71	1.674
746.90	1.670
747.09	1.671
747.28	1.671
747.48	1.672
747.67	1.671
747.86	1.669
748.05	1.669
748.24	1.666
748.43	1.664
748.62	1.662
748.82	1.661
749.01	1.665
749.20	1.663
749.39	1.666
749.58	1.663
749.77	1.667
749.96	1.666
750.16	1.671
750.35	1.669
750.54	1.666
750.73	1.666
750.92	1.665
751.11	1.667
751.30	1.669
751.49	1.671
751.68	1.669
751.88	1.672
752.07	1.670
752.26	1.672
752.45	1.672
752.64	1.670
752.83	1.672
753.02	1.670
753.21	1.675
753.40	1.671
753.60	1.673
753.79	1.668
753.98	1.669
754.17	1.667
754.36	1.667
754.55	1.666
754.74	1.667
754.93	1.668
755.12	1.668
755.31	1.668
755.50	1.669
755.70	1.671
755.89	1.671
756.08	1.674
756.27	1.673
756.46	1.672
756.65	1.677
756.84	1.678
757.03	1.676
757.22	1.671
757.41	1.675
757.60	1.675
757.79	1.677
757.98	1.673
758.17	1.673
758.36	1.672
758.56	1.673
758.75	1.674
758.94	1.677
759.13	1.680
759.32	1.680
759.51	1.681
759.70	1.677
759.89	1.677
760.08	1.678
760.27	1.682
760.46	1.688
760.65	1.683
760.84	1.685
761.03	1.685
761.22	1.690
761.41	1.688
761.60	1.689
761.79	1.689
761.98	1.691
762.17	1.693
762.36	1.694
762.55	1.695
762.74	1.692
762.93	1.690
763.12	1.686
763.31	1.683
763.50	1.682
763.69	1.686
763.88	1.686
764.07	1.685
764.26	1.682
764.45	1.680
764.64	1.683
764.83	1.681
765.02	1.686
765.21	1.684
765.40	1.684
765.59	1.684
765.78	1.685
765.97	1.685
766.16	1.682
766.35	1.682
766.54	1.683
766.73	1.685
766.92	1.683
767.11	1.689
767.30	1.691
767.49	1.691
767.68	1.691
767.87	1.692
768.06	1.694
768.25	1.696
768.44	1.694
768.63	1.696
768.82	1.692
769.01	1.688
769.20	1.688
769.39	1.691
769.58	1.690
769.77	1.691
769.96	1.695
770.15	1.695
770.34	1.695
770.53	1.697
770.72	1.697
770.91	1.703
771.10	1.698
771.29	1.699
771.47	1.701
771.66	1.698
771.85	1.693
772.04	1.692
772.23	1.690
772.42	1.693
772.61	1.691
772.80	1.692
772.99	1.691
773.18	1.689
773.37	1.684
773.56	1.681
773.75	1.681
773.94	1.680
774.13	1.680
774.31	1.679
774.50	1.678
774.69	1.679
774.88	1.678
775.07	1.678
775.26	1.674
775.45	1.673
775.64	1.675
775.83	1.683
776.02	1.685
776.21	1.684
776.40	1.680
776.58	1.680
776.77	1.680
776.96	1.684
777.15	1.687
777.34	1.693
777.53	1.699
777.72	1.699
777.91	1.698
778.10	1.702
778.28	1.701
778.47	1.700
778.66	1.697
778.85	1.694
779.04	1.695
779.23	1.695
779.42	1.695
779.61	1.691
779.79	1.687
779.98	1.682
780.17	1.682
780.36	1.684
780.55	1.683
780.74	1.684
780.93	1.681
781.12	1.681
781.30	1.677
781.49	1.673
781.68	1.673
781.87	1.673
782.06	1.671
782.25	1.674
782.44	1.674
782.62	1.675
782.81	1.680
783.00	1.680
783.19	1.684
783.38	1.684
783.57	1.688
783.75	1.686
783.94	1.690
784.13	1.691
784.32	1.692
784.51	1.691
784.70	1.691
784.88	1.690
785.07	1.688
785.26	1.689
785.45	1.690
785.64	1.692
785.83	1.688
786.01	1.687
786.20	1.686
786.39	1.687
786.58	1.688
786.77	1.684
786.95	1.687
787.14	1.683
787.33	1.682
787.52	1.680
787.71	1.680
787.90	1.679
788.08	1.679
788.27	1.680
788.46	1.683
788.65	1.681
788.84	1.684
789.02	1.682
789.21	1.681
789.40	1.681
789.59	1.679
789.77	1.684
789.96	1.685
790.15	1.683
790.34	1.680
790.53	1.681
790.71	1.680
790.90	1.679
791.09	1.679
791.28	1.679
791.46	1.680
791.65	1.682
791.84	1.684
792.03	1.685
792.22	1.684
792.40	1.680
792.59	1.684
792.78	1.683
792.97	1.688
793.15	1.692
793.34	1.691
793.53	1.692
793.72	1.689
793.90	1.688
794.09	1.691
794.28	1.694
794.47	1.693
794.65	1.691
794.84	1.695
795.03	1.695
795.22	1.697
795.40	1.695
795.59	1.696
795.78	1.698
795.97	1.695
796.15	1.692
796.34	1.694
796.53	1.694
796.71	1.695
796.90	1.692
797.09	1.688
797.28	1.689
797.46	1.687
797.65	1.686
797.84	1.688
798.02	1.685
798.21	1.683
798.40	1.686
798.59	1.690
798.77	1.686
798.96	1.688
799.15	1.687
799.33	1.688
799.52	1.687
799.71	1.686
799.90	1.690
800.08	1.691
800.27	1.692
800.46	1.694
800.64	1.693
800.83	1.693
801.02	1.699
801.20	1.698
801.39	1.699
801.58	1.701
801.76	1.698
801.95	1.701
802.14	1.701
802.32	1.698
802.51	1.697
802.70	1.698
802.88	1.697
803.07	1.694
803.26	1.697
803.44	1.700
803.63	1.700
803.82	1.698
804.00	1.699
804.19	1.699
804.38	1.698
804.56	1.698
804.75	1.700
804.94	1.697
805.12	1.696
805.31	1.697
805.50	1.696
805.68	1.697
805.87	1.695
806.06	1.698
806.24	1.699
806.43	1.700
806.62	1.704
806.80	1.705
806.99	1.710
807.17	1.706
807.36	1.702
807.55	1.702
807.73	1.701
807.92	1.703
808.11	1.702
808.29	1.699
808.48	1.701
808.66	1.700
808.85	1.701
809.04	1.702
809.22	1.701
809.41	1.702
809.59	1.705
809.78	1.704
809.97	1.702
810.15	1.702
810.34	1.702
810.53	1.699
810.71	1.700
810.90	1.697
811.08	1.701
811.27	1.701
811.45	1.698
811.64	1.698
811.83	1.696
812.01	1.695
812.20	1.695
812.38	1.695
812.57	1.697
812.76	1.695
812.94	1.697
813.13	1.700
813.31	1.701
813.50	1.701
813.68	1.706
813.87	1.709
814.06	1.708
814.24	1.705
814.43	1.704
814.61	1.703
814.80	1.705
814.98	1.705
815.17	1.706
815.36	1.708
815.54	1.708
815.73	1.707
815.91	1.707
816.10	1.707
816.28	1.706
816.47	1.704
816.65	1.707
816.84	1.706
817.03	1.704
817.21	1.701
817.40	1.697
817.58	1.694
817.77	1.692
817.95	1.692
818.14	1.695
818.32	1.697
818.51	1.695
818.69	1.692
818.88	1.692
819.06	1.693
819.25	1.693
819.43	1.695
819.62	1.696
819.80	1.700
819.99	1.699
820.18	1.703
820.36	1.704
820.55	1.702
820.73	1.702
820.92	1.705
821.10	1.705
821.29	1.710
821.47	1.707
821.66	1.709
821.84	1.709
822.03	1.707
822.21	1.705
822.40	1.709
822.58	1.709
822.77	1.704
822.95	1.706
823.14	1.707
823.32	1.709
823.50	1.710
823.69	1.708
823.87	1.709
824.06	1.706
824.24	1.705
824.43	1.707
824.61	1.707
824.80	1.707
824.98	1.704
825.17	1.705
825.35	1.709
825.54	1.706
825.72	1.707
825.91	1.709
826.09	1.711
826.28	1.710
826.46	1.711
826.64	1.716
826.83	1.716
827.01	1.716
827.20	1.712
827.38	1.711
827.57	1.714
827.75	1.716
827.94	1.714
828.12	1.713
828.31	1.711
828.49	1.709
828.67	1.708
828.86	1.710
829.04	1.709
829.23	1.705
829.41	1.705
829.60	1.702
829.78	1.700
829.96	1.698
830.15	1.699
830.33	1.704
830.52	1.706
830.70	1.705
830.88	1.703
831.07	1.707
831.25	1.706
831.44	1.703
831.62	1.700
831.81	1.705
831.99	1.708
832.17	1.704
832.36	1.704
832.54	1.703
832.73	1.705
832.91	1.704
833.09	1.703
833.28	1.705
833.46	1.709
833.65	1.710
833.83	1.708
834.01	1.708
834.20	1.704
834.38	1.700
834.56	1.697
834.75	1.698
834.93	1.695
835.12	1.695
835.30	1.692
835.48	1.695
835.67	1.691
835.85	1.693
836.03	1.701
836.22	1.706
836.40	1.705
836.59	1.705
836.77	1.705
836.95	1.706
837.14	1.706
837.32	1.707
837.50	1.706
837.69	1.709
837.87	1.706
838.05	1.708
838.24	1.711
838.42	1.711
838.60	1.713
838.79	1.713
838.97	1.714
839.15	1.718
839.34	1.716
839.52	1.716
839.70	1.714
839.89	1.708
840.07	1.706
840.25	1.708
840.44	1.708
840.62	1.708
840.80	1.708
840.99	1.708
841.17	1.709
841.35	1.711
841.54	1.713
841.72	1.712
841.90	1.709
842.09	1.706
842.27	1.708
842.45	1.708
842.64	1.711
842.82	1.709
843.00	1.704
843.19	1.706
843.37	1.708
843.55	1.711
843.73	1.714
843.92	1.711
844.10	1.710
844.28	1.709
844.47	1.707
844.65	1.710
844.83	1.709
845.01	1.706
845.20	1.702
845.38	1.701
845.56	1.705
845.75	1.706
845.93	1.707
846.11	1.709
846.29	1.708
846.48	1.707
846.66	1.711
846.84	1.716
847.02	1.714
847.21	1.710
847.39	1.704
847.57	1.703
847.76	1.706
847.94	1.708
848.12	1.706
848.30	1.707
848.49	1.707
848.67	1.708
848.85	1.711
849.03	1.714
849.22	1.713
849.40	1.715
849.58	1.716
849.76	1.717
849.95	1.712
850.13	1.712
850.31	1.711
850.49	1.710
850.67	1.709
850.86	1.711
851.04	1.715
851.22	1.718
851.40	1.718
851.59	1.717
851.77	1.715
851.95	1.718
852.13	1.715
852.31	1.715
852.50	1.715
852.68	1.717
852.86	1.715
853.04	1.719
853.23	1.713
853.41	1.712
853.59	1.712
853.77	1.714
853.95	1.718
854.14	1.714
854.32	1.716
854.50	1.718
854.68	1.714
854.86	1.714
855.04	1.713
855.23	1.708
855.41	1.707
855.59	1.708
855.77	1.707
855.95	1.711
856.14	1.712
856.32	1.709
856.50	1.706
856.68	1.709
856.86	1.708
857.04	1.712
857.23	1.714
857.41	1.714
857.59	1.712
857.77	1.706
857.95	1.710
858.13	1.708
858.32	1.709
858.50	1.713
858.68	1.713
858.86	1.717
859.04	1.722
859.22	1.725
859.41	1.724
859.59	1.728
859.77	1.731
859.95	1.731
860.13	1.730
860.31	1.733
860.49	1.729
860.68	1.728
860.86	1.727
861.04	1.725
861.22	1.724
861.40	1.729
861.58	1.730
861.76	1.731
861.94	1.729
862.13	1.728
862.31	1.728
862.49	1.726
862.67	1.727
862.85	1.728
863.03	1.726
863.21	1.730
863.39	1.725
863.57	1.721
863.76	1.721
863.94	1.722
864.12	1.723
864.30	1.726
864.48	1.728
864.66	1.726
864.84	1.728
865.02	1.729
865.20	1.729
865.38	1.732
865.57	1.729
865.75	1.732
865.93	1.732
866.11	1.726
866.29	1.730
866.47	1.727
866.65	1.723
866.83	1.723
867.01	1.720
867.19	1.717
867.37	1.716
867.55	1.719
867.73	1.714
867.92	1.713
868.10	1.712
868.28	1.710
868.46	1.709
868.64	1.703
868.82	1.704
869.00	1.701
869.18	1.696
869.36	1.696
869.54	1.695
869.72	1.696
869.90	1.698
870.08	1.697
870.26	1.697
870.44	1.699
870.62	1.700
870.80	1.702
870.98	1.702
871.16	1.703
871.34	1.701
871.53	1.704
871.71	1.702
871.89	1.699
872.07	1.702
872.25	1.705
872.43	1.707
872.61	1.707
872.79	1.707
872.97	1.712
873.15	1.714
873.33	1.714
873.51	1.711
873.69	1.713
873.87	1.714
874.05	1.717
874.23	1.717
874.41	1.720
874.59	1.718
874.77	1.721
874.95	1.722
875.13	1.724
875.31	1.725
875.49	1.724
875.67	1.722
875.85	1.720
876.03	1.718
876.21	1.721
876.39	1.725
876.57	1.725
876.75	1.726
876.93	1.727
877.11	1.731
877.29	1.732
877.47	1.734
877.65	1.729
877.82	1.730
878.00	1.726
878.18	1.724
878.36	1.725
878.54	1.725
878.72	1.723
878.90	1.721
879.08	1.720
879.26	1.723
879.44	1.725
879.62	1.726
879.80	1.726
879.98	1.725
880.16	1.721
880.34	1.723
880.52	1.723
880.70	1.723
880.88	1.719
881.06	1.717
881.24	1.716
881.42	1.718
881.59	1.714
881.77	1.718
881.95	1.721
882.13	1.722
882.31	1.725
882.49	1.727
882.67	1.729
882.85	1.729
883.03	1.728
883.21	1.733
883.39	1.731
883.57	1.732
883.75	1.733
883.92	1.732
884.10	1.732
884.28	1.729
884.46	1.725
884.64	1.724
884.82	1.727
885.00	1.728
885.18	1.732
885.36	1.732
885.54	1.730
885.71	1.727
885.89	1.726
886.07	1.722
886.25	1.720
886.43	1.721
886.61	1.723
886.79	1.723
886.97	1.720
887.15	1.724
887.32	1.722
887.50	1.723
887.68	1.724
887.86	1.724
888.04	1.729
888.22	1.731
888.40	1.734
888.57	1.732
888.75	1.730
888.93	1.727
889.11	1.729
889.29	1.731
889.47	1.731
889.65	1.732
889.82	1.732
890.00	1.733
890.18	1.730
890.36	1.730
890.54	1.730
890.72	1.732
890.90	1.733
891.07	1.737
891.25	1.740
891.43	1.739
891.61	1.739
891.79	1.736
891.97	1.735
892.14	1.733
892.32	1.737
892.50	1.737
892.68	1.738
892.86	1.738
893.03	1.736
893.21	1.738
893.39	1.741
893.57	1.741
893.75	1.744
893.93	1.748
894.10	1.749
894.28	1.747
894.46	1.745
894.64	1.744
894.82	1.739
894.99	1.732
895.17	1.732
895.35	1.735
895.53	1.736
895.71	1.736
895.88	1.735
896.06	1.734
896.24	1.732
896.42	1.728
896.59	1.730
896.77	1.732
896.95	1.734
897.13	1.733
897.31	1.737
897.48	1.735
897.66	1.730
897.84	1.731
898.02	1.734
898.19	1.736
898.37	1.733
898.55	1.735
898.73	1.738
898.91	1.736
899.08	1.731
899.26	1.734
899.44	1.736
899.62	1.737
899.79	1.739
899.97	1.742
900.15	1.745
900.33	1.743
900.50	1.742
900.68	1.739
900.86	1.738
901.04	1.735
901.21	1.738
901.39	1.741
901.57	1.742
901.74	1.741
901.92	1.740
902.10	1.738
902.28	1.736
902.45	1.734
902.63	1.736
902.81	1.737
902.99	1.734
903.16	1.733
903.34	1.734
903.52	1.732
903.69	1.730
903.87	1.727
904.05	1.729
904.22	1.731
904.40	1.732
904.58	1.733
904.76	1.734
904.93	1.730
905.11	1.728
905.29	1.725
905.46	1.725
905.64	1.720
905.82	1.720
905.99	1.724
906.17	1.725
906.35	1.724
906.53	1.724
906.70	1.724
906.88	1.723
907.06	1.722
907.23	1.723
907.41	1.724
907.59	1.726
907.76	1.724
907.94	1.722
908.12	1.721
908.29	1.718
908.47	1.716
908.65	1.715
908.82	1.717
909.00	1.715
909.18	1.714
909.35	1.718
909.53	1.722
909.71	1.721
909.88	1.723
910.06	1.724
910.23	1.725
910.41	1.728
910.59	1.730
910.76	1.732
910.94	1.731
911.12	1.734
911.29	1.734
911.47	1.735
911.65	1.735
911.82	1.734
912.00	1.737
912.17	1.740
912.35	1.739
912.53	1.736
912.70	1.738
912.88	1.741
913.06	1.742
913.23	1.741
913.41	1.739
913.58	1.738
913.76	1.738
913.94	1.738
914.11	1.735
914.29	1.729
914.46	1.726
914.64	1.726
914.82	1.725
914.99	1.723
915.17	1.723
915.34	1.722
915.52	1.723
915.70	1.725
915.87	1.722
916.05	1.723
916.22	1.725
916.40	1.725
916.57	1.720
916.75	1.719
916.93	1.719
917.10	1.717
917.28	1.716
917.45	1.718
917.63	1.721
917.80	1.721
917.98	1.725
918.16	1.722
918.33	1.721
918.51	1.720
918.68	1.724
918.86	1.722
919.03	1.724
919.21	1.724
919.39	1.723
919.56	1.723
919.74	1.725
919.91	1.723
920.09	1.723
920.26	1.725
920.44	1.726
920.61	1.728
920.79	1.732
920.96	1.728
921.14	1.729
921.31	1.727
921.49	1.728
921.67	1.729
921.84	1.731
922.02	1.730
922.19	1.726
922.37	1.728
922.54	1.727
922.72	1.726
922.89	1.725
923.07	1.727
923.24	1.729
923.42	1.730
923.59	1.732
923.77	1.732
923.94	1.732
924.12	1.729
924.29	1.727
924.47	1.727
924.64	1.732
924.82	1.731
924.99	1.734
925.17	1.739
925.34	1.739
925.52	1.741
925.69	1.742
925.87	1.744
926.04	1.742
926.22	1.746
926.39	1.746
926.57	1.746
926.74	1.744
926.91	1.741
927.09	1.740
927.26	1.742
927.44	1.742
927.61	1.743
927.79	1.746
927.96	1.749
928.14	1.752
928.31	1.750
928.49	1.752
928.66	1.750
928.84	1.746
929.01	1.746
929.18	1.746
929.36	1.746
929.53	1.747
929.71	1.745
929.88	1.749
930.06	1.746
930.23	1.747
930.41	1.750
930.58	1.751
930.75	1.751
930.93	1.748
931.10	1.749
931.28	1.750
931.45	1.750
931.63	1.748
931.80	1.747
931.97	1.746
932.15	1.747
932.32	1.744
932.50	1.746
932.67	1.745
932.84	1.742
933.02	1.742
933.19	1.740
933.37	1.742
933.54	1.737
933.71	1.737
933.89	1.739
934.06	1.734
934.24	1.735
934.41	1.735
934.58	1.739
934.76	1.740
934.93	1.739
935.11	1.737
935.28	1.742
935.45	1.739
935.63	1.743
935.80	1.742
935.98	1.743
936.15	1.744
936.32	1.746
936.50	1.748
936.67	1.750
936.84	1.753
937.02	1.747
937.19	1.753
937.36	1.757
937.54	1.755
937.71	1.757
937.89	1.759
938.06	1.762
938.23	1.759
938.41	1.755
938.58	1.754
938.75	1.758
938.93	1.756
939.10	1.756
939.27	1.755
939.45	1.753
939.62	1.752
939.79	1.748
939.97	1.748
940.14	1.749
940.31	1.747
940.49	1.747
940.66	1.749
940.83	1.744
941.01	1.746
941.18	1.747
941.35	1.749
941.53	1.745
941.70	1.742
941.87	1.746
942.05	1.747
942.22	1.746
942.39	1.741
942.57	1.742
942.74	1.744
942.91	1.739
943.08	1.736
943.26	1.739
943.43	1.739
943.60	1.736
943.78	1.735
943.95	1.737
944.12	1.738
944.29	1.745
944.47	1.747
944.64	1.739
944.81	1.738
944.99	1.736
945.16	1.741
945.33	1.740
945.50	1.738
945.68	1.737
945.85	1.739
946.02	1.746
946.20	1.743
946.37	1.741
946.54	1.736
946.71	1.738
946.89	1.734
947.06	1.736
947.23	1.745
947.40	1.745
947.58	1.743
947.75	1.748
947.92	1.743
948.09	1.737
948.27	1.742
948.44	1.740
948.61	1.737
948.78	1.736
948.96	1.733
949.13	1.731
949.30	1.738
949.47	1.740
949.65	1.733
949.82	1.738
949.99	1.737
950.16	1.741
950.33	1.744
950.51	1.745
950.68	1.744
950.85	1.740
951.02	1.741
951.20	1.739
951.37	1.740
951.54	1.744
951.71	1.751
951.88	1.755
952.06	1.756
952.23	1.757
952.40	1.757
952.57	1.762
952.74	1.766
952.92	1.759
953.09	1.759
953.26	1.764
953.43	1.757
953.60	1.757
953.77	1.757
953.95	1.760
954.12	1.763
954.29	1.754
954.46	1.753
954.63	1.754
954.81	1.758
954.98	1.749
955.15	1.757
955.32	1.759
955.49	1.757
955.66	1.758
955.84	1.763
956.01	1.766
956.18	1.771
956.35	1.767
956.52	1.771
956.69	1.779
956.87	1.786
957.04	1.793
957.21	1.791
957.38	1.799
957.55	1.787
957.72	1.787
957.89	1.795
958.07	1.794
958.24	1.799
958.41	1.794
958.58	1.793
958.75	1.776
958.92	1.773
959.09	1.775
959.26	1.767
959.44	1.774
959.61	1.766
959.78	1.759
959.95	1.761
960.12	1.761
960.29	1.750
960.46	1.742
960.63	1.736
960.81	1.746
960.98	1.743
961.15	1.750
961.32	1.747
961.49	1.747
961.66	1.757
961.83	1.750
962.00	1.749
962.17	1.757
962.34	1.758
962.52	1.754
962.69	1.748
962.86	1.749
963.03	1.739
963.20	1.751
963.37	1.752
963.54	1.745
963.71	1.743
963.88	1.741
964.05	1.746
964.22	1.738
964.39	1.731
964.56	1.727
964.74	1.729
964.91	1.743
965.08	1.743
965.25	1.726
965.42	1.728
965.59	1.733
965.76	1.729
965.93	1.734
966.10	1.745
966.27	1.743
966.44	1.739
966.61	1.742
966.78	1.738
966.95	1.748
967.12	1.754
967.29	1.757
967.46	1.757
967.63	1.757
967.80	1.765
967.97	1.773
968.14	1.779
968.32	1.774
968.49	1.766
968.66	1.771
968.83	1.776
969.00	1.770
969.17	1.780
969.34	1.785
969.51	1.784
969.68	1.768
969.85	1.770
970.02	1.776
970.19	1.790
970.36	1.787
970.53	1.780
970.70	1.773
970.87	1.777
971.04	1.782
971.21	1.779
971.38	1.779
971.55	1.774
971.72	1.776
971.89	1.777
972.06	1.777
972.23	1.773
972.40	1.781
972.57	1.790
972.74	1.781
972.91	1.760
973.07	1.762
973.24	1.773
973.41	1.776
973.58	1.777
973.75	1.771
973.92	1.769
974.09	1.780
974.26	1.796
974.43	1.790
974.60	1.795
974.77	1.799
974.94	1.799
975.11	1.802
975.28	1.795
975.45	1.799
975.62	1.798
975.79	1.798
975.96	1.796
976.13	1.805
976.30	1.795
976.47	1.813
976.64	1.804
976.80	1.808
976.97	1.808
977.14	1.813
977.31	1.809
977.48	1.817
977.65	1.798
977.82	1.798
977.99	1.791
978.16	1.790
978.33	1.785
978.50	1.786
978.67	1.781
978.83	1.787
979.00	1.784
979.17	1.782
979.34	1.783
979.51	1.780
979.68	1.766
979.85	1.777
980.02	1.780
980.19	1.788
980.36	1.787
980.52	1.792
980.69	1.782
980.86	1.781
981.03	1.782
981.20	1.785
981.37	1.787
981.54	1.788
981.71	1.781
981.88	1.783
982.04	1.788
982.21	1.780
982.38	1.765
982.55	1.766
982.72	1.768
982.89	1.771
983.06	1.769
983.22	1.762
983.39	1.758
983.56	1.762
983.73	1.752
983.90	1.744
984.07	1.735
984.24	1.751
984.40	1.739
984.57	1.731
984.74	1.733
984.91	1.727
985.08	1.719
985.25	1.724
985.41	1.724
985.58	1.728
985.75	1.734
985.92	1.737
986.09	1.744
986.26	1.748
986.42	1.749
986.59	1.747
986.76	1.760
986.93	1.768
987.10	1.762
987.27	1.763
987.43	1.775
987.60	1.784
987.77	1.771
987.94	1.779
988.11	1.769
988.27	1.772
988.44	1.767
988.61	1.786
988.78	1.780
988.95	1.775
989.11	1.769
989.28	1.778
989.45	1.800
989.62	1.797
989.79	1.790
989.95	1.782
990.12	1.779
990.29	1.767
990.46	1.754
990.62	1.762
990.79	1.770
990.96	1.773
991.13	1.757
991.30	1.769
991.46	1.774
991.63	1.780
991.80	1.774
991.97	1.763
992.13	1.760
992.30	1.748
992.47	1.753
992.64	1.753
992.80	1.747
992.97	1.735
993.14	1.724
993.31	1.707
993.47	1.723
993.64	1.728
993.81	1.755
993.98	1.763
994.14	1.752
994.31	1.754
994.48	1.731
994.64	1.748
994.81	1.747
994.98	1.743
995.15	1.761
995.31	1.768
995.48	1.786
995.65	1.789
995.82	1.820
995.98	1.837
996.15	1.836
996.32	1.825
996.48	1.824
996.65	1.843
996.82	1.871
996.99	1.850
997.15	1.856
997.32	1.831
997.49	1.838
997.65	1.848
997.82	1.836
997.99	1.868
998.15	1.860
998.32	1.865
998.49	1.863
998.65	1.855
998.82	1.853
998.99	1.846
999.15	1.840
999.32	1.817
999.49	1.796
999.65	1.792
999.82	1.828
999.99	1.828
1000.15	1.813
1000.32	1.817
1000.49	1.819
1000.65	1.818
1000.82	1.812
1000.99	1.816
1001.15	1.812
1001.32	1.821
1001.49	1.804
1001.65	1.787
1001.82	1.781
1001.99	1.789
1002.15	1.785
1002.32	1.799
1002.49	1.800
1002.65	1.787
1002.82	1.800
1002.99	1.817
1003.15	1.830
1003.32	1.812
1003.48	1.806
1003.65	1.803
1003.82	1.790
1003.98	1.795
1004.15	1.797
1004.32	1.820
1004.48	1.818
1004.65	1.837
1004.81	1.829
1004.98	1.833
1005.15	1.847
1005.31	1.851
1005.48	1.834
1005.64	1.824
1005.81	1.820
1005.98	1.824
1006.14	1.832
1006.31	1.826
1006.47	1.813
1006.64	1.798
1006.81	1.796
1006.97	1.807
1007.14	1.792
1007.30	1.815
1007.47	1.813
1007.63	1.797
1007.80	1.795
1007.97	1.807
1008.13	1.765
1008.30	1.776
1008.46	1.777
1008.63	1.788
1008.79	1.763
1008.96	1.792
1009.13	1.796
1009.29	1.801
1009.46	1.802
1009.62	1.806
1009.79	1.825
1009.95	1.833
1010.12	1.832
1010.28	1.838
1010.45	1.821
1010.62	1.846
1010.78	1.816
1010.95	1.850
1011.11	1.863
1011.28	1.836
1011.44	1.813
1011.61	1.829
1011.77	1.832
1011.94	1.830
1012.10	1.838
1012.27	1.858
1012.43	1.832
1012.60	1.835
1012.76	1.817
1012.93	1.819
1013.10	1.814
1013.26	1.803
1013.43	1.805
1013.59	1.800
1013.76	1.771
1013.92	1.788
1014.09	1.795
1014.25	1.808
1014.42	1.784
1014.58	1.775
1014.75	1.796
1014.91	1.808
1015.08	1.820
1015.24	1.807
1015.41	1.780
1015.57	1.773
1015.73	1.787
1015.90	1.792
1016.06	1.795
1016.23	1.809
1016.39	1.790
1016.56	1.810
1016.72	1.802
1016.89	1.798
1017.05	1.798
1017.22	1.831
1017.38	1.811
1017.55	1.802
1017.71	1.784
1017.88	1.792
1018.04	1.808
1018.21	1.780
1018.37	1.746
1018.53	1.752
1018.70	1.775
1018.86	1.808
1019.03	1.778
1019.19	1.788
1019.36	1.802
1019.52	1.809
1019.69	1.801
1019.85	1.793
1020.01	1.781
1020.18	1.788
1020.34	1.757
1020.51	1.764
1020.67	1.761
1020.84	1.778
1021.00	1.769
1021.16	1.775
1021.33	1.753
1021.49	1.752
1021.66	1.766
1021.82	1.809
1021.98	1.790
1022.15	1.794
1022.31	1.768
1022.48	1.787
1022.64	1.762
1022.80	1.740
1022.97	1.732
1023.13	1.721
1023.30	1.729
1023.46	1.724
1023.62	1.719
1023.79	1.757
1023.95	1.766
1024.12	1.743
1024.28	1.733
1024.44	1.741
1024.61	1.747
1024.77	1.747
1024.93	1.719
1025.10	1.727
1025.26	1.707
1025.43	1.733
1025.59	1.733
1025.75	1.736
1025.92	1.720
1026.08	1.711
1026.24	1.710
1026.41	1.702
1026.57	1.705
1026.73	1.724
1026.90	1.744
1027.06	1.757
1027.23	1.742
1027.39	1.762
1027.55	1.801
1027.72	1.809
1027.88	1.826
1028.04	1.826
1028.21	1.814
1028.37	1.866
1028.53	1.873
1028.70	1.898
1028.86	1.887
1029.02	1.898
1029.19	1.926
1029.35	1.960
1029.51	1.985
1029.67	2.017
1029.84	2.038
1030.00	2.076
1030.16	2.129
1030.33	2.085
1030.49	2.035
1030.65	2.069
1030.82	2.065
1030.98	2.067
1031.14	2.075
1031.31	2.036
1031.47	2.091
1031.63	2.160
1031.79	2.105
1031.96	2.071
1032.12	2.122
1032.28	2.118
1032.45	2.030
1032.61	2.054
1032.77	2.044
1032.93	2.051
1033.10	1.995
1033.26	1.979
1033.42	1.962
1033.58	1.926
1033.75	1.943
1033.91	1.984
1034.07	1.966
1034.24	1.921
1034.40	1.905
1034.56	1.926
1034.72	1.951
1034.89	1.893
1035.05	1.885
1035.21	1.880
1035.37	1.888
1035.54	1.836
1035.70	1.814
1035.86	1.826
1036.02	1.795
1036.19	1.813
1036.35	1.855
1036.51	1.887
1036.67	1.854
1036.83	1.848
1037.00	1.805
1037.16	1.795
1037.32	1.795
1037.48	1.829
1037.65	1.858
1037.81	1.861
1037.97	1.808
1038.13	1.807
1038.29	1.865
1038.46	1.845
1038.62	1.870
1038.78	1.870
1038.94	1.808
1039.10	1.802
1039.27	1.834
1039.43	1.826
1039.59	1.812
1039.75	1.769
1039.91	1.783
1040.08	1.799
1040.24	1.779
1040.40	1.822
1040.56	1.831
1040.72	1.793
1040.89	1.753
1041.05	1.765
1041.21	1.709
1041.37	1.717
1041.53	1.700
1041.69	1.694
1041.86	1.730
1042.02	1.723
1042.18	1.726
1042.34	1.806
1042.50	1.817
1042.66	1.827
1042.83	1.902
1042.99	1.900
1043.15	1.892
1043.31	1.826
1043.47	1.873
1043.63	1.892
1043.79	1.882
1043.96	1.905
1044.12	1.859
1044.28	1.878
1044.44	1.826
1044.60	1.911
1044.76	1.891
1044.92	1.942
1045.09	1.881
1045.25	1.820
1045.41	2.325
1045.57	-0.000
1045.73	1.249
1045.89	2.671
1046.05	1.647
1046.21	-0.000
1046.38	1.270
1046.54	-0.000
1046.70	1.469
1046.86	1.528
>>>>>End Processed Spectral Data<<<<<
