SpectraSuite Data File
++++++++++++++++++++++++++++++++++++
Date: Mon May 06 14:14:39 CDT 2013
User: Students
Dark Spectrum Present: Yes
Reference Spectrum Present: Yes
Number of Sampled Component Spectra: 1
Spectrometers: USB4H00887
Integration Time (usec): 25000 (USB4H00887)
Spectra Averaged: 10 (USB4H00887)
Boxcar Smoothing: 10 (USB4H00887)
Correct for Electrical Dark: No (USB4H00887)
Strobe/Lamp Enabled: No (USB4H00887)
Correct for Detector Non-linearity: No (USB4H00887)
Correct for Stray Light: No (USB4H00887)
Number of Pixels in Processed Spectrum: 3648
>>>>>Begin Processed Spectral Data<<<<<
345.83	0.737
346.05	0.737
346.26	0.737
346.48	-0.011
346.70	-0.365
346.92	-0.000
347.14	0.646
347.35	-0.000
347.57	-0.810
347.79	-0.145
348.01	0.742
348.23	0.918
348.44	0.826
348.66	0.863
348.88	1.166
349.10	-0.000
349.32	0.952
349.53	0.959
349.75	1.189
349.97	1.757
350.19	-0.000
350.41	0.907
350.62	0.414
350.84	0.911
351.06	0.758
351.28	0.338
351.50	0.473
351.71	0.316
351.93	0.598
352.15	0.541
352.37	0.389
352.58	0.452
352.80	0.290
353.02	0.081
353.24	-0.004
353.46	-0.180
353.67	-0.173
353.89	-0.182
354.11	-0.130
354.33	-0.168
354.54	-0.128
354.76	-0.138
354.98	-0.093
355.20	-0.055
355.41	-0.019
355.63	-0.076
355.85	-0.067
356.07	-0.098
356.28	-0.090
356.50	-0.084
356.72	-0.030
356.94	0.068
357.15	0.029
357.37	0.010
357.59	0.073
357.81	0.104
358.02	0.150
358.24	0.179
358.46	0.221
358.68	0.192
358.89	0.191
359.11	0.186
359.33	0.264
359.55	0.198
359.76	0.257
359.98	0.223
360.20	0.235
360.42	0.271
360.63	0.197
360.85	0.169
361.07	0.131
361.29	0.128
361.50	0.077
361.72	0.075
361.94	0.107
362.15	0.122
362.37	0.095
362.59	0.057
362.81	0.047
363.02	0.021
363.24	0.036
363.46	0.079
363.68	0.074
363.89	0.081
364.11	0.086
364.33	0.033
364.54	-0.022
364.76	-0.020
364.98	0.019
365.20	0.043
365.41	0.017
365.63	0.095
365.85	0.111
366.06	0.124
366.28	0.159
366.50	0.159
366.71	0.088
366.93	0.084
367.15	0.077
367.37	0.026
367.58	0.007
367.80	0.029
368.02	0.026
368.23	0.089
368.45	0.076
368.67	0.042
368.88	0.096
369.10	0.071
369.32	0.074
369.53	0.035
369.75	0.021
369.97	0.040
370.19	-0.001
370.40	0.009
370.62	0.083
370.84	0.086
371.05	0.073
371.27	0.091
371.49	0.119
371.70	0.149
371.92	0.183
372.14	0.196
372.35	0.170
372.57	0.128
372.79	0.113
373.00	0.089
373.22	0.142
373.44	0.102
373.65	0.156
373.87	0.181
374.09	0.161
374.30	0.197
374.52	0.239
374.74	0.250
374.95	0.242
375.17	0.198
375.39	0.205
375.60	0.223
375.82	0.259
376.04	0.255
376.25	0.290
376.47	0.320
376.68	0.347
376.90	0.379
377.12	0.422
377.33	0.418
377.55	0.452
377.77	0.415
377.98	0.470
378.20	0.437
378.42	0.390
378.63	0.406
378.85	0.388
379.07	0.359
379.28	0.383
379.50	0.335
379.71	0.354
379.93	0.338
380.15	0.363
380.36	0.429
380.58	0.399
380.80	0.364
381.01	0.332
381.23	0.357
381.44	0.364
381.66	0.346
381.88	0.358
382.09	0.399
382.31	0.427
382.53	0.414
382.74	0.367
382.96	0.342
383.17	0.396
383.39	0.442
383.61	0.422
383.82	0.401
384.04	0.482
384.25	0.463
384.47	0.462
384.69	0.483
384.90	0.505
385.12	0.542
385.33	0.477
385.55	0.551
385.77	0.590
385.98	0.607
386.20	0.650
386.41	0.593
386.63	0.566
386.85	0.534
387.06	0.501
387.28	0.525
387.49	0.530
387.71	0.495
387.93	0.489
388.14	0.510
388.36	0.538
388.57	0.451
388.79	0.466
389.01	0.460
389.22	0.425
389.44	0.429
389.65	0.418
389.87	0.462
390.08	0.470
390.30	0.428
390.52	0.444
390.73	0.449
390.95	0.487
391.16	0.442
391.38	0.468
391.59	0.507
391.81	0.521
392.03	0.551
392.24	0.625
392.46	0.653
392.67	0.679
392.89	0.648
393.10	0.662
393.32	0.658
393.53	0.639
393.75	0.664
393.97	0.610
394.18	0.639
394.40	0.645
394.61	0.597
394.83	0.623
395.04	0.605
395.26	0.626
395.47	0.619
395.69	0.659
395.91	0.578
396.12	0.557
396.34	0.569
396.55	0.579
396.77	0.548
396.98	0.519
397.20	0.504
397.41	0.513
397.63	0.540
397.84	0.564
398.06	0.592
398.27	0.600
398.49	0.596
398.71	0.618
398.92	0.584
399.14	0.597
399.35	0.615
399.57	0.617
399.78	0.627
400.00	0.615
400.21	0.609
400.43	0.667
400.64	0.693
400.86	0.682
401.07	0.697
401.29	0.676
401.50	0.704
401.72	0.757
401.93	0.730
402.15	0.746
402.36	0.742
402.58	0.722
402.79	0.730
403.01	0.755
403.22	0.736
403.44	0.764
403.65	0.746
403.87	0.726
404.08	0.744
404.30	0.746
404.51	0.757
404.73	0.794
404.94	0.741
405.16	0.719
405.37	0.786
405.59	0.787
405.80	0.801
406.02	0.815
406.23	0.819
406.45	0.813
406.66	0.819
406.88	0.800
407.09	0.828
407.31	0.827
407.52	0.814
407.74	0.864
407.95	0.949
408.17	0.968
408.38	1.047
408.60	0.994
408.81	0.932
409.03	1.000
409.24	0.993
409.45	1.088
409.67	1.133
409.88	1.013
410.10	1.029
410.31	1.077
410.53	1.001
410.74	0.936
410.96	1.071
411.17	1.116
411.39	1.167
411.60	1.171
411.82	1.157
412.03	1.215
412.24	1.141
412.46	1.063
412.67	1.069
412.89	1.036
413.10	1.047
413.32	1.078
413.53	1.044
413.75	1.041
413.96	1.047
414.17	1.035
414.39	1.046
414.60	1.023
414.82	1.004
415.03	1.004
415.25	1.058
415.46	1.001
415.68	0.940
415.89	0.936
416.10	0.925
416.32	0.938
416.53	0.933
416.75	0.922
416.96	0.932
417.18	0.927
417.39	0.913
417.60	0.904
417.82	0.919
418.03	0.942
418.25	0.950
418.46	0.951
418.67	0.953
418.89	0.941
419.10	0.933
419.32	0.963
419.53	1.010
419.75	0.997
419.96	0.940
420.17	0.997
420.39	0.998
420.60	1.009
420.82	1.006
421.03	1.048
421.24	1.057
421.46	1.045
421.67	1.057
421.89	1.020
422.10	1.049
422.31	1.043
422.53	1.026
422.74	1.021
422.96	1.007
423.17	1.039
423.38	1.080
423.60	1.127
423.81	1.160
424.03	1.119
424.24	1.112
424.45	1.233
424.67	1.176
424.88	1.177
425.09	1.208
425.31	1.214
425.52	1.155
425.74	1.212
425.95	1.204
426.16	1.274
426.38	1.379
426.59	1.366
426.80	1.317
427.02	1.295
427.23	1.258
427.45	1.272
427.66	1.278
427.87	1.294
428.09	1.238
428.30	1.236
428.51	1.256
428.73	1.217
428.94	1.215
429.15	1.311
429.37	1.327
429.58	1.312
429.79	1.252
430.01	1.241
430.22	1.208
430.44	1.208
430.65	1.173
430.86	1.168
431.08	1.204
431.29	1.280
431.50	1.291
431.72	1.384
431.93	1.312
432.14	1.299
432.36	1.280
432.57	1.289
432.78	1.255
433.00	1.272
433.21	1.317
433.42	1.274
433.64	1.227
433.85	1.220
434.06	1.228
434.28	1.310
434.49	1.353
434.70	1.370
434.92	1.363
435.13	1.370
435.34	1.310
435.56	1.262
435.77	1.237
435.98	1.247
436.20	1.225
436.41	1.224
436.62	1.204
436.83	1.208
437.05	1.237
437.26	1.209
437.47	1.217
437.69	1.211
437.90	1.228
438.11	1.207
438.33	1.231
438.54	1.221
438.75	1.199
438.97	1.201
439.18	1.179
439.39	1.205
439.60	1.193
439.82	1.227
440.03	1.251
440.24	1.262
440.46	1.229
440.67	1.236
440.88	1.260
441.10	1.278
441.31	1.271
441.52	1.223
441.73	1.236
441.95	1.233
442.16	1.269
442.37	1.311
442.58	1.317
442.80	1.309
443.01	1.342
443.22	1.364
443.44	1.358
443.65	1.362
443.86	1.361
444.07	1.372
444.29	1.370
444.50	1.376
444.71	1.381
444.92	1.396
445.14	1.432
445.35	1.430
445.56	1.408
445.78	1.401
445.99	1.403
446.20	1.416
446.41	1.438
446.63	1.393
446.84	1.330
447.05	1.345
447.26	1.316
447.48	1.320
447.69	1.319
447.90	1.317
448.11	1.307
448.33	1.328
448.54	1.341
448.75	1.351
448.96	1.317
449.18	1.320
449.39	1.350
449.60	1.298
449.81	1.326
450.03	1.329
450.24	1.327
450.45	1.365
450.66	1.367
450.87	1.355
451.09	1.413
451.30	1.434
451.51	1.445
451.72	1.428
451.94	1.417
452.15	1.411
452.36	1.413
452.57	1.448
452.78	1.411
453.00	1.425
453.21	1.446
453.42	1.507
453.63	1.497
453.85	1.460
454.06	1.490
454.27	1.483
454.48	1.545
454.69	1.611
454.91	1.593
455.12	1.590
455.33	1.610
455.54	1.517
455.75	1.495
455.97	1.474
456.18	1.498
456.39	1.495
456.60	1.506
456.81	1.490
457.03	1.482
457.24	1.476
457.45	1.459
457.66	1.451
457.87	1.442
458.09	1.451
458.30	1.460
458.51	1.497
458.72	1.491
458.93	1.436
459.15	1.441
459.36	1.443
459.57	1.440
459.78	1.470
459.99	1.521
460.20	1.537
460.42	1.574
460.63	1.590
460.84	1.607
461.05	1.596
461.26	1.612
461.47	1.581
461.69	1.566
461.90	1.523
462.11	1.505
462.32	1.477
462.53	1.462
462.74	1.470
462.96	1.435
463.17	1.431
463.38	1.458
463.59	1.421
463.80	1.444
464.01	1.451
464.23	1.445
464.44	1.418
464.65	1.408
464.86	1.393
465.07	1.410
465.28	1.409
465.49	1.422
465.71	1.428
465.92	1.436
466.13	1.475
466.34	1.503
466.55	1.502
466.76	1.541
466.97	1.580
467.19	1.550
467.40	1.576
467.61	1.561
467.82	1.555
468.03	1.599
468.24	1.581
468.45	1.584
468.66	1.576
468.88	1.611
469.09	1.615
469.30	1.605
469.51	1.598
469.72	1.637
469.93	1.620
470.14	1.616
470.35	1.641
470.57	1.649
470.78	1.663
470.99	1.665
471.20	1.615
471.41	1.596
471.62	1.632
471.83	1.598
472.04	1.625
472.25	1.623
472.47	1.616
472.68	1.604
472.89	1.576
473.10	1.542
473.31	1.534
473.52	1.541
473.73	1.566
473.94	1.576
474.15	1.536
474.36	1.546
474.57	1.541
474.79	1.554
475.00	1.550
475.21	1.544
475.42	1.547
475.63	1.600
475.84	1.612
476.05	1.605
476.26	1.627
476.47	1.643
476.68	1.658
476.89	1.659
477.10	1.668
477.32	1.669
477.53	1.705
477.74	1.720
477.95	1.717
478.16	1.714
478.37	1.707
478.58	1.708
478.79	1.706
479.00	1.719
479.21	1.705
479.42	1.695
479.63	1.693
479.84	1.710
480.05	1.691
480.26	1.692
480.47	1.691
480.69	1.684
480.90	1.672
481.11	1.685
481.32	1.696
481.53	1.710
481.74	1.737
481.95	1.735
482.16	1.724
482.37	1.734
482.58	1.740
482.79	1.722
483.00	1.730
483.21	1.745
483.42	1.736
483.63	1.737
483.84	1.748
484.05	1.759
484.26	1.779
484.47	1.782
484.68	1.786
484.89	1.795
485.10	1.790
485.31	1.813
485.52	1.796
485.73	1.758
485.94	1.767
486.15	1.749
486.37	1.748
486.58	1.770
486.79	1.770
487.00	1.748
487.21	1.792
487.42	1.790
487.63	1.769
487.84	1.776
488.05	1.783
488.26	1.783
488.47	1.787
488.68	1.769
488.89	1.769
489.10	1.759
489.31	1.753
489.52	1.770
489.73	1.779
489.94	1.785
490.15	1.821
490.36	1.813
490.57	1.823
490.78	1.827
490.99	1.810
491.20	1.809
491.41	1.835
491.62	1.810
491.83	1.829
492.04	1.838
492.25	1.866
492.45	1.853
492.66	1.853
492.87	1.836
493.08	1.826
493.29	1.835
493.50	1.837
493.71	1.848
493.92	1.839
494.13	1.821
494.34	1.820
494.55	1.821
494.76	1.813
494.97	1.828
495.18	1.827
495.39	1.818
495.60	1.812
495.81	1.797
496.02	1.799
496.23	1.793
496.44	1.788
496.65	1.763
496.86	1.774
497.07	1.779
497.28	1.796
497.49	1.813
497.70	1.819
497.91	1.833
498.12	1.840
498.32	1.850
498.53	1.876
498.74	1.878
498.95	1.863
499.16	1.887
499.37	1.874
499.58	1.890
499.79	1.903
500.00	1.935
500.21	1.946
500.42	1.917
500.63	1.941
500.84	1.957
501.05	1.973
501.26	1.991
501.46	1.987
501.67	1.996
501.88	1.994
502.09	1.970
502.30	1.973
502.51	1.979
502.72	2.016
502.93	2.001
503.14	2.011
503.35	2.026
503.56	2.004
503.77	1.997
503.97	2.011
504.18	2.031
504.39	2.043
504.60	2.076
504.81	2.109
505.02	2.096
505.23	2.135
505.44	2.141
505.65	2.112
505.86	2.138
506.07	2.165
506.27	2.209
506.48	2.221
506.69	2.158
506.90	2.131
507.11	2.128
507.32	2.145
507.53	2.139
507.74	2.143
507.95	2.160
508.15	2.211
508.36	2.155
508.57	2.141
508.78	2.118
508.99	2.151
509.20	2.148
509.41	2.109
509.62	2.086
509.82	2.103
510.03	2.113
510.24	2.110
510.45	2.088
510.66	2.053
510.87	2.066
511.08	2.115
511.29	2.144
511.49	2.116
511.70	2.114
511.91	2.114
512.12	2.097
512.33	2.088
512.54	2.086
512.75	2.111
512.95	2.099
513.16	2.104
513.37	2.080
513.58	2.074
513.79	2.104
514.00	2.110
514.20	2.078
514.41	2.069
514.62	2.082
514.83	2.069
515.04	2.086
515.25	2.075
515.46	2.055
515.66	2.046
515.87	2.043
516.08	2.014
516.29	2.010
516.50	2.019
516.71	2.045
516.91	2.050
517.12	2.051
517.33	2.067
517.54	2.081
517.75	2.067
517.95	2.086
518.16	2.089
518.37	2.073
518.58	2.090
518.79	2.118
519.00	2.101
519.20	2.110
519.41	2.118
519.62	2.124
519.83	2.157
520.04	2.163
520.24	2.168
520.45	2.195
520.66	2.243
520.87	2.249
521.08	2.275
521.28	2.251
521.49	2.251
521.70	2.246
521.91	2.225
522.12	2.261
522.32	2.282
522.53	2.262
522.74	2.300
522.95	2.291
523.16	2.268
523.36	2.256
523.57	2.244
523.78	2.238
523.99	2.211
524.20	2.187
524.40	2.174
524.61	2.161
524.82	2.152
525.03	2.146
525.23	2.163
525.44	2.120
525.65	2.132
525.86	2.134
526.06	2.137
526.27	2.119
526.48	2.108
526.69	2.122
526.90	2.109
527.10	2.102
527.31	2.096
527.52	2.113
527.73	2.128
527.93	2.143
528.14	2.130
528.35	2.147
528.56	2.127
528.76	2.168
528.97	2.188
529.18	2.178
529.39	2.157
529.59	2.148
529.80	2.149
530.01	2.160
530.22	2.158
530.42	2.147
530.63	2.154
530.84	2.147
531.05	2.116
531.25	2.136
531.46	2.123
531.67	2.128
531.88	2.118
532.08	2.117
532.29	2.125
532.50	2.132
532.70	2.152
532.91	2.166
533.12	2.147
533.33	2.147
533.53	2.143
533.74	2.138
533.95	2.105
534.15	2.131
534.36	2.130
534.57	2.150
534.78	2.157
534.98	2.170
535.19	2.160
535.40	2.153
535.60	2.155
535.81	2.147
536.02	2.144
536.23	2.153
536.43	2.148
536.64	2.137
536.85	2.130
537.05	2.113
537.26	2.122
537.47	2.107
537.67	2.094
537.88	2.113
538.09	2.090
538.30	2.115
538.50	2.085
538.71	2.077
538.92	2.046
539.12	2.052
539.33	2.036
539.54	2.032
539.74	2.030
539.95	2.035
540.16	2.034
540.36	2.046
540.57	2.040
540.78	2.032
540.98	2.037
541.19	2.043
541.40	2.043
541.60	2.037
541.81	2.038
542.02	2.037
542.22	2.037
542.43	2.058
542.64	2.055
542.84	2.051
543.05	2.047
543.26	2.064
543.46	2.046
543.67	2.056
543.88	2.050
544.08	2.052
544.29	2.032
544.50	2.036
544.70	2.028
544.91	2.013
545.12	2.007
545.32	1.996
545.53	1.983
545.74	1.983
545.94	1.981
546.15	1.972
546.35	1.988
546.56	1.970
546.77	1.969
546.97	1.972
547.18	1.973
547.39	1.973
547.59	1.961
547.80	1.958
548.01	1.945
548.21	1.944
548.42	1.933
548.62	1.952
548.83	1.946
549.04	1.950
549.24	1.953
549.45	1.966
549.65	1.964
549.86	1.961
550.07	1.952
550.27	1.952
550.48	1.947
550.69	1.934
550.89	1.944
551.10	1.938
551.30	1.915
551.51	1.911
551.72	1.901
551.92	1.900
552.13	1.895
552.33	1.899
552.54	1.900
552.75	1.902
552.95	1.874
553.16	1.863
553.36	1.852
553.57	1.843
553.78	1.828
553.98	1.828
554.19	1.826
554.39	1.823
554.60	1.820
554.80	1.818
555.01	1.811
555.22	1.798
555.42	1.793
555.63	1.795
555.83	1.798
556.04	1.800
556.25	1.791
556.45	1.782
556.66	1.778
556.86	1.770
557.07	1.764
557.27	1.773
557.48	1.770
557.68	1.763
557.89	1.757
558.10	1.755
558.30	1.738
558.51	1.735
558.71	1.724
558.92	1.714
559.12	1.711
559.33	1.706
559.54	1.702
559.74	1.693
559.95	1.684
560.15	1.671
560.36	1.660
560.56	1.652
560.77	1.653
560.97	1.643
561.18	1.635
561.38	1.628
561.59	1.618
561.79	1.613
562.00	1.605
562.21	1.603
562.41	1.590
562.62	1.584
562.82	1.577
563.03	1.574
563.23	1.566
563.44	1.557
563.64	1.552
563.85	1.546
564.05	1.540
564.26	1.534
564.46	1.530
564.67	1.524
564.87	1.522
565.08	1.513
565.28	1.507
565.49	1.504
565.69	1.501
565.90	1.492
566.10	1.484
566.31	1.479
566.51	1.469
566.72	1.461
566.92	1.456
567.13	1.449
567.33	1.441
567.54	1.435
567.74	1.430
567.95	1.423
568.15	1.415
568.36	1.410
568.56	1.405
568.77	1.398
568.97	1.391
569.18	1.384
569.38	1.377
569.59	1.372
569.79	1.363
570.00	1.356
570.20	1.352
570.41	1.347
570.61	1.339
570.82	1.335
571.02	1.333
571.23	1.326
571.43	1.322
571.64	1.318
571.84	1.312
572.05	1.307
572.25	1.301
572.45	1.295
572.66	1.290
572.86	1.285
573.07	1.280
573.27	1.274
573.48	1.269
573.68	1.266
573.89	1.259
574.09	1.254
574.30	1.247
574.50	1.240
574.70	1.235
574.91	1.229
575.11	1.225
575.32	1.219
575.52	1.214
575.73	1.207
575.93	1.198
576.14	1.193
576.34	1.186
576.54	1.180
576.75	1.176
576.95	1.169
577.16	1.164
577.36	1.157
577.57	1.153
577.77	1.147
577.97	1.139
578.18	1.134
578.38	1.128
578.59	1.123
578.79	1.118
579.00	1.112
579.20	1.106
579.40	1.099
579.61	1.094
579.81	1.089
580.02	1.083
580.22	1.079
580.42	1.074
580.63	1.069
580.83	1.064
581.04	1.057
581.24	1.051
581.45	1.044
581.65	1.040
581.85	1.034
582.06	1.030
582.26	1.025
582.47	1.020
582.67	1.015
582.87	1.010
583.08	1.005
583.28	1.000
583.48	0.996
583.69	0.992
583.89	0.988
584.10	0.983
584.30	0.979
584.50	0.975
584.71	0.972
584.91	0.967
585.12	0.961
585.32	0.957
585.52	0.954
585.73	0.950
585.93	0.945
586.13	0.940
586.34	0.935
586.54	0.932
586.75	0.928
586.95	0.924
587.15	0.921
587.36	0.917
587.56	0.912
587.76	0.907
587.97	0.903
588.17	0.898
588.37	0.894
588.58	0.889
588.78	0.885
588.98	0.880
589.19	0.876
589.39	0.873
589.60	0.868
589.80	0.864
590.00	0.860
590.21	0.857
590.41	0.852
590.61	0.848
590.82	0.843
591.02	0.838
591.22	0.833
591.43	0.829
591.63	0.825
591.83	0.823
592.04	0.819
592.24	0.815
592.44	0.811
592.65	0.807
592.85	0.804
593.05	0.800
593.26	0.796
593.46	0.790
593.66	0.787
593.86	0.784
594.07	0.781
594.27	0.778
594.47	0.773
594.68	0.770
594.88	0.766
595.08	0.763
595.29	0.760
595.49	0.755
595.69	0.752
595.90	0.748
596.10	0.744
596.30	0.741
596.50	0.737
596.71	0.734
596.91	0.731
597.11	0.727
597.32	0.725
597.52	0.721
597.72	0.719
597.93	0.716
598.13	0.712
598.33	0.709
598.53	0.706
598.74	0.703
598.94	0.700
599.14	0.698
599.35	0.695
599.55	0.693
599.75	0.691
599.95	0.688
600.16	0.685
600.36	0.682
600.56	0.678
600.76	0.676
600.97	0.673
601.17	0.670
601.37	0.667
601.58	0.664
601.78	0.661
601.98	0.658
602.18	0.656
602.39	0.653
602.59	0.650
602.79	0.647
602.99	0.644
603.20	0.642
603.40	0.638
603.60	0.636
603.80	0.633
604.01	0.630
604.21	0.627
604.41	0.624
604.61	0.622
604.82	0.620
605.02	0.617
605.22	0.615
605.42	0.612
605.62	0.609
605.83	0.606
606.03	0.604
606.23	0.602
606.43	0.599
606.64	0.597
606.84	0.594
607.04	0.591
607.24	0.588
607.45	0.585
607.65	0.583
607.85	0.581
608.05	0.578
608.25	0.575
608.46	0.573
608.66	0.571
608.86	0.569
609.06	0.566
609.26	0.564
609.47	0.562
609.67	0.560
609.87	0.558
610.07	0.555
610.28	0.553
610.48	0.551
610.68	0.548
610.88	0.545
611.08	0.544
611.29	0.542
611.49	0.540
611.69	0.538
611.89	0.535
612.09	0.533
612.29	0.531
612.50	0.529
612.70	0.526
612.90	0.524
613.10	0.522
613.30	0.520
613.51	0.517
613.71	0.515
613.91	0.513
614.11	0.510
614.31	0.508
614.51	0.506
614.72	0.504
614.92	0.502
615.12	0.500
615.32	0.498
615.52	0.496
615.72	0.494
615.93	0.492
616.13	0.490
616.33	0.488
616.53	0.486
616.73	0.484
616.93	0.483
617.14	0.480
617.34	0.478
617.54	0.476
617.74	0.475
617.94	0.473
618.14	0.471
618.34	0.470
618.55	0.469
618.75	0.467
618.95	0.465
619.15	0.463
619.35	0.461
619.55	0.459
619.75	0.458
619.96	0.456
620.16	0.454
620.36	0.453
620.56	0.451
620.76	0.449
620.96	0.448
621.16	0.446
621.36	0.444
621.57	0.443
621.77	0.442
621.97	0.440
622.17	0.439
622.37	0.437
622.57	0.435
622.77	0.434
622.97	0.432
623.18	0.431
623.38	0.429
623.58	0.428
623.78	0.426
623.98	0.424
624.18	0.423
624.38	0.421
624.58	0.420
624.78	0.419
624.98	0.417
625.19	0.415
625.39	0.414
625.59	0.412
625.79	0.411
625.99	0.409
626.19	0.407
626.39	0.406
626.59	0.404
626.79	0.402
626.99	0.401
627.19	0.399
627.40	0.397
627.60	0.396
627.80	0.394
628.00	0.393
628.20	0.392
628.40	0.390
628.60	0.389
628.80	0.388
629.00	0.386
629.20	0.385
629.40	0.383
629.60	0.382
629.80	0.380
630.00	0.379
630.20	0.378
630.41	0.376
630.61	0.375
630.81	0.374
631.01	0.372
631.21	0.371
631.41	0.370
631.61	0.369
631.81	0.368
632.01	0.367
632.21	0.366
632.41	0.365
632.61	0.363
632.81	0.362
633.01	0.361
633.21	0.360
633.41	0.358
633.61	0.357
633.81	0.356
634.01	0.355
634.21	0.354
634.41	0.353
634.61	0.352
634.81	0.351
635.01	0.350
635.22	0.349
635.42	0.347
635.62	0.346
635.82	0.345
636.02	0.343
636.22	0.342
636.42	0.341
636.62	0.340
636.82	0.339
637.02	0.338
637.22	0.337
637.42	0.336
637.62	0.335
637.82	0.333
638.02	0.332
638.22	0.331
638.42	0.330
638.62	0.329
638.82	0.328
639.02	0.327
639.22	0.326
639.42	0.325
639.62	0.324
639.82	0.323
640.02	0.322
640.22	0.321
640.42	0.320
640.62	0.319
640.82	0.317
641.02	0.316
641.22	0.315
641.42	0.314
641.61	0.313
641.81	0.312
642.01	0.311
642.21	0.310
642.41	0.309
642.61	0.308
642.81	0.307
643.01	0.305
643.21	0.304
643.41	0.303
643.61	0.302
643.81	0.301
644.01	0.300
644.21	0.299
644.41	0.298
644.61	0.297
644.81	0.296
645.01	0.296
645.21	0.295
645.41	0.294
645.61	0.293
645.81	0.292
646.01	0.291
646.21	0.290
646.40	0.289
646.60	0.288
646.80	0.287
647.00	0.287
647.20	0.286
647.40	0.285
647.60	0.284
647.80	0.284
648.00	0.283
648.20	0.282
648.40	0.281
648.60	0.281
648.80	0.280
649.00	0.279
649.20	0.278
649.39	0.277
649.59	0.277
649.79	0.276
649.99	0.275
650.19	0.274
650.39	0.273
650.59	0.273
650.79	0.272
650.99	0.271
651.19	0.270
651.39	0.270
651.58	0.269
651.78	0.268
651.98	0.267
652.18	0.266
652.38	0.265
652.58	0.265
652.78	0.264
652.98	0.263
653.18	0.263
653.38	0.262
653.57	0.261
653.77	0.260
653.97	0.259
654.17	0.258
654.37	0.258
654.57	0.257
654.77	0.257
654.97	0.256
655.16	0.255
655.36	0.254
655.56	0.254
655.76	0.253
655.96	0.253
656.16	0.252
656.36	0.251
656.56	0.251
656.75	0.250
656.95	0.250
657.15	0.249
657.35	0.248
657.55	0.247
657.75	0.246
657.95	0.246
658.14	0.245
658.34	0.245
658.54	0.244
658.74	0.243
658.94	0.242
659.14	0.241
659.34	0.241
659.53	0.240
659.73	0.239
659.93	0.239
660.13	0.238
660.33	0.237
660.53	0.236
660.72	0.236
660.92	0.235
661.12	0.234
661.32	0.234
661.52	0.233
661.72	0.233
661.91	0.232
662.11	0.232
662.31	0.231
662.51	0.231
662.71	0.230
662.90	0.229
663.10	0.229
663.30	0.229
663.50	0.228
663.70	0.227
663.90	0.227
664.09	0.226
664.29	0.226
664.49	0.225
664.69	0.225
664.89	0.224
665.08	0.224
665.28	0.223
665.48	0.223
665.68	0.222
665.88	0.222
666.07	0.221
666.27	0.220
666.47	0.220
666.67	0.219
666.87	0.219
667.06	0.218
667.26	0.218
667.46	0.217
667.66	0.217
667.85	0.216
668.05	0.215
668.25	0.214
668.45	0.214
668.65	0.213
668.84	0.213
669.04	0.212
669.24	0.211
669.44	0.211
669.63	0.210
669.83	0.210
670.03	0.209
670.23	0.209
670.42	0.208
670.62	0.208
670.82	0.207
671.02	0.207
671.22	0.206
671.41	0.206
671.61	0.205
671.81	0.205
672.01	0.205
672.20	0.205
672.40	0.204
672.60	0.204
672.80	0.204
672.99	0.203
673.19	0.203
673.39	0.202
673.58	0.202
673.78	0.201
673.98	0.201
674.18	0.201
674.37	0.200
674.57	0.200
674.77	0.199
674.97	0.199
675.16	0.198
675.36	0.198
675.56	0.197
675.75	0.197
675.95	0.196
676.15	0.196
676.35	0.195
676.54	0.195
676.74	0.194
676.94	0.194
677.13	0.193
677.33	0.193
677.53	0.193
677.73	0.192
677.92	0.192
678.12	0.191
678.32	0.191
678.51	0.190
678.71	0.190
678.91	0.189
679.11	0.189
679.30	0.188
679.50	0.188
679.70	0.188
679.89	0.187
680.09	0.187
680.29	0.187
680.48	0.186
680.68	0.186
680.88	0.185
681.07	0.185
681.27	0.184
681.47	0.184
681.66	0.184
681.86	0.183
682.06	0.183
682.25	0.182
682.45	0.182
682.65	0.181
682.84	0.181
683.04	0.181
683.24	0.180
683.43	0.180
683.63	0.179
683.83	0.179
684.02	0.178
684.22	0.178
684.42	0.177
684.61	0.177
684.81	0.177
685.01	0.176
685.20	0.175
685.40	0.175
685.60	0.175
685.79	0.174
685.99	0.174
686.19	0.174
686.38	0.173
686.58	0.173
686.77	0.172
686.97	0.172
687.17	0.172
687.36	0.172
687.56	0.171
687.76	0.171
687.95	0.170
688.15	0.170
688.34	0.170
688.54	0.170
688.74	0.169
688.93	0.169
689.13	0.169
689.33	0.169
689.52	0.169
689.72	0.168
689.91	0.168
690.11	0.168
690.31	0.167
690.50	0.167
690.70	0.167
690.89	0.167
691.09	0.167
691.29	0.166
691.48	0.166
691.68	0.165
691.87	0.165
692.07	0.165
692.27	0.164
692.46	0.164
692.66	0.163
692.85	0.163
693.05	0.163
693.25	0.162
693.44	0.162
693.64	0.162
693.83	0.161
694.03	0.161
694.22	0.161
694.42	0.160
694.62	0.160
694.81	0.159
695.01	0.159
695.20	0.159
695.40	0.158
695.59	0.158
695.79	0.158
695.99	0.157
696.18	0.157
696.38	0.157
696.57	0.157
696.77	0.157
696.96	0.156
697.16	0.156
697.36	0.156
697.55	0.155
697.75	0.155
697.94	0.155
698.14	0.155
698.33	0.155
698.53	0.155
698.72	0.154
698.92	0.154
699.11	0.154
699.31	0.154
699.51	0.154
699.70	0.153
699.90	0.153
700.09	0.153
700.29	0.153
700.48	0.152
700.68	0.152
700.87	0.151
701.07	0.151
701.26	0.151
701.46	0.151
701.65	0.150
701.85	0.150
702.04	0.150
702.24	0.150
702.43	0.150
702.63	0.149
702.82	0.149
703.02	0.149
703.21	0.149
703.41	0.148
703.60	0.148
703.80	0.148
703.99	0.147
704.19	0.147
704.38	0.146
704.58	0.146
704.77	0.146
704.97	0.146
705.16	0.145
705.36	0.145
705.55	0.145
705.75	0.145
705.94	0.144
706.14	0.144
706.33	0.143
706.53	0.143
706.72	0.143
706.92	0.143
707.11	0.142
707.31	0.142
707.50	0.142
707.70	0.141
707.89	0.141
708.09	0.141
708.28	0.141
708.48	0.141
708.67	0.140
708.86	0.140
709.06	0.140
709.25	0.140
709.45	0.140
709.64	0.140
709.84	0.139
710.03	0.139
710.23	0.139
710.42	0.139
710.62	0.138
710.81	0.138
711.00	0.138
711.20	0.138
711.39	0.138
711.59	0.138
711.78	0.137
711.98	0.137
712.17	0.137
712.37	0.136
712.56	0.136
712.75	0.136
712.95	0.136
713.14	0.135
713.34	0.135
713.53	0.135
713.73	0.134
713.92	0.134
714.11	0.134
714.31	0.134
714.50	0.134
714.70	0.134
714.89	0.133
715.08	0.133
715.28	0.133
715.47	0.133
715.67	0.132
715.86	0.132
716.06	0.132
716.25	0.132
716.44	0.131
716.64	0.131
716.83	0.131
717.03	0.131
717.22	0.131
717.41	0.131
717.61	0.130
717.80	0.130
717.99	0.130
718.19	0.130
718.38	0.130
718.58	0.129
718.77	0.129
718.96	0.129
719.16	0.129
719.35	0.128
719.55	0.128
719.74	0.128
719.93	0.128
720.13	0.128
720.32	0.128
720.51	0.128
720.71	0.128
720.90	0.127
721.10	0.127
721.29	0.127
721.48	0.127
721.68	0.127
721.87	0.127
722.06	0.127
722.26	0.127
722.45	0.126
722.64	0.126
722.84	0.126
723.03	0.126
723.22	0.126
723.42	0.126
723.61	0.125
723.80	0.125
724.00	0.125
724.19	0.125
724.38	0.124
724.58	0.124
724.77	0.124
724.96	0.124
725.16	0.124
725.35	0.124
725.54	0.123
725.74	0.123
725.93	0.123
726.12	0.123
726.32	0.123
726.51	0.123
726.70	0.122
726.90	0.122
727.09	0.122
727.28	0.122
727.48	0.122
727.67	0.122
727.86	0.121
728.06	0.121
728.25	0.121
728.44	0.121
728.64	0.120
728.83	0.120
729.02	0.119
729.21	0.119
729.41	0.119
729.60	0.119
729.79	0.119
729.99	0.119
730.18	0.119
730.37	0.119
730.56	0.118
730.76	0.118
730.95	0.118
731.14	0.118
731.34	0.117
731.53	0.117
731.72	0.117
731.91	0.117
732.11	0.117
732.30	0.117
732.49	0.117
732.69	0.117
732.88	0.117
733.07	0.117
733.26	0.116
733.46	0.116
733.65	0.116
733.84	0.116
734.03	0.115
734.23	0.115
734.42	0.115
734.61	0.115
734.80	0.115
735.00	0.115
735.19	0.114
735.38	0.114
735.57	0.114
735.77	0.114
735.96	0.114
736.15	0.114
736.34	0.114
736.54	0.114
736.73	0.113
736.92	0.113
737.11	0.113
737.31	0.113
737.50	0.113
737.69	0.113
737.88	0.112
738.07	0.112
738.27	0.112
738.46	0.112
738.65	0.112
738.84	0.112
739.04	0.111
739.23	0.111
739.42	0.111
739.61	0.111
739.80	0.111
740.00	0.111
740.19	0.111
740.38	0.110
740.57	0.110
740.76	0.110
740.96	0.110
741.15	0.109
741.34	0.110
741.53	0.109
741.72	0.109
741.92	0.109
742.11	0.109
742.30	0.109
742.49	0.108
742.68	0.108
742.88	0.108
743.07	0.108
743.26	0.108
743.45	0.107
743.64	0.107
743.84	0.107
744.03	0.107
744.22	0.107
744.41	0.106
744.60	0.106
744.79	0.106
744.99	0.106
745.18	0.106
745.37	0.105
745.56	0.105
745.75	0.105
745.94	0.105
746.14	0.105
746.33	0.105
746.52	0.105
746.71	0.104
746.90	0.104
747.09	0.104
747.28	0.104
747.48	0.104
747.67	0.103
747.86	0.103
748.05	0.103
748.24	0.103
748.43	0.103
748.62	0.102
748.82	0.102
749.01	0.102
749.20	0.102
749.39	0.101
749.58	0.101
749.77	0.101
749.96	0.101
750.16	0.101
750.35	0.101
750.54	0.101
750.73	0.101
750.92	0.101
751.11	0.101
751.30	0.101
751.49	0.100
751.68	0.100
751.88	0.100
752.07	0.100
752.26	0.100
752.45	0.100
752.64	0.100
752.83	0.100
753.02	0.100
753.21	0.100
753.40	0.100
753.60	0.100
753.79	0.100
753.98	0.100
754.17	0.100
754.36	0.100
754.55	0.100
754.74	0.100
754.93	0.099
755.12	0.099
755.31	0.099
755.50	0.099
755.70	0.099
755.89	0.099
756.08	0.099
756.27	0.099
756.46	0.099
756.65	0.098
756.84	0.098
757.03	0.098
757.22	0.098
757.41	0.098
757.60	0.097
757.79	0.097
757.98	0.097
758.17	0.097
758.36	0.097
758.56	0.097
758.75	0.097
758.94	0.097
759.13	0.097
759.32	0.096
759.51	0.096
759.70	0.096
759.89	0.096
760.08	0.096
760.27	0.096
760.46	0.096
760.65	0.095
760.84	0.095
761.03	0.095
761.22	0.095
761.41	0.095
761.60	0.095
761.79	0.095
761.98	0.095
762.17	0.095
762.36	0.094
762.55	0.094
762.74	0.094
762.93	0.094
763.12	0.094
763.31	0.094
763.50	0.094
763.69	0.094
763.88	0.093
764.07	0.093
764.26	0.093
764.45	0.093
764.64	0.093
764.83	0.093
765.02	0.093
765.21	0.093
765.40	0.093
765.59	0.092
765.78	0.092
765.97	0.093
766.16	0.092
766.35	0.092
766.54	0.092
766.73	0.092
766.92	0.092
767.11	0.091
767.30	0.091
767.49	0.091
767.68	0.091
767.87	0.091
768.06	0.091
768.25	0.091
768.44	0.090
768.63	0.090
768.82	0.090
769.01	0.090
769.20	0.090
769.39	0.090
769.58	0.090
769.77	0.090
769.96	0.089
770.15	0.089
770.34	0.089
770.53	0.089
770.72	0.089
770.91	0.089
771.10	0.089
771.29	0.089
771.47	0.089
771.66	0.089
771.85	0.089
772.04	0.089
772.23	0.089
772.42	0.088
772.61	0.089
772.80	0.088
772.99	0.088
773.18	0.088
773.37	0.088
773.56	0.088
773.75	0.088
773.94	0.088
774.13	0.088
774.31	0.088
774.50	0.088
774.69	0.088
774.88	0.087
775.07	0.087
775.26	0.087
775.45	0.087
775.64	0.087
775.83	0.087
776.02	0.087
776.21	0.087
776.40	0.087
776.58	0.086
776.77	0.086
776.96	0.086
777.15	0.086
777.34	0.085
777.53	0.085
777.72	0.085
777.91	0.085
778.10	0.085
778.28	0.085
778.47	0.085
778.66	0.085
778.85	0.085
779.04	0.085
779.23	0.084
779.42	0.084
779.61	0.084
779.79	0.084
779.98	0.084
780.17	0.084
780.36	0.083
780.55	0.084
780.74	0.084
780.93	0.084
781.12	0.084
781.30	0.084
781.49	0.084
781.68	0.084
781.87	0.084
782.06	0.083
782.25	0.083
782.44	0.083
782.62	0.083
782.81	0.083
783.00	0.083
783.19	0.083
783.38	0.083
783.57	0.083
783.75	0.083
783.94	0.083
784.13	0.083
784.32	0.083
784.51	0.082
784.70	0.082
784.88	0.082
785.07	0.082
785.26	0.082
785.45	0.082
785.64	0.082
785.83	0.081
786.01	0.082
786.20	0.081
786.39	0.081
786.58	0.081
786.77	0.081
786.95	0.081
787.14	0.081
787.33	0.081
787.52	0.080
787.71	0.080
787.90	0.080
788.08	0.080
788.27	0.080
788.46	0.080
788.65	0.080
788.84	0.080
789.02	0.080
789.21	0.080
789.40	0.079
789.59	0.079
789.77	0.079
789.96	0.079
790.15	0.079
790.34	0.079
790.53	0.078
790.71	0.078
790.90	0.078
791.09	0.079
791.28	0.079
791.46	0.079
791.65	0.079
791.84	0.078
792.03	0.078
792.22	0.078
792.40	0.078
792.59	0.078
792.78	0.078
792.97	0.078
793.15	0.078
793.34	0.078
793.53	0.078
793.72	0.078
793.90	0.078
794.09	0.077
794.28	0.077
794.47	0.078
794.65	0.077
794.84	0.077
795.03	0.077
795.22	0.077
795.40	0.077
795.59	0.077
795.78	0.077
795.97	0.077
796.15	0.077
796.34	0.077
796.53	0.077
796.71	0.077
796.90	0.076
797.09	0.076
797.28	0.076
797.46	0.076
797.65	0.076
797.84	0.076
798.02	0.076
798.21	0.076
798.40	0.076
798.59	0.076
798.77	0.075
798.96	0.075
799.15	0.075
799.33	0.075
799.52	0.075
799.71	0.075
799.90	0.075
800.08	0.075
800.27	0.075
800.46	0.074
800.64	0.074
800.83	0.074
801.02	0.074
801.20	0.074
801.39	0.074
801.58	0.074
801.76	0.074
801.95	0.074
802.14	0.074
802.32	0.074
802.51	0.073
802.70	0.073
802.88	0.073
803.07	0.073
803.26	0.073
803.44	0.073
803.63	0.073
803.82	0.073
804.00	0.073
804.19	0.073
804.38	0.073
804.56	0.073
804.75	0.073
804.94	0.073
805.12	0.073
805.31	0.073
805.50	0.073
805.68	0.073
805.87	0.073
806.06	0.072
806.24	0.072
806.43	0.072
806.62	0.072
806.80	0.072
806.99	0.072
807.17	0.072
807.36	0.072
807.55	0.072
807.73	0.072
807.92	0.072
808.11	0.071
808.29	0.071
808.48	0.071
808.66	0.071
808.85	0.071
809.04	0.071
809.22	0.071
809.41	0.071
809.59	0.071
809.78	0.071
809.97	0.071
810.15	0.071
810.34	0.071
810.53	0.070
810.71	0.070
810.90	0.070
811.08	0.070
811.27	0.070
811.45	0.070
811.64	0.070
811.83	0.070
812.01	0.070
812.20	0.070
812.38	0.070
812.57	0.069
812.76	0.069
812.94	0.069
813.13	0.069
813.31	0.069
813.50	0.069
813.68	0.069
813.87	0.069
814.06	0.069
814.24	0.069
814.43	0.069
814.61	0.069
814.80	0.069
814.98	0.069
815.17	0.068
815.36	0.069
815.54	0.069
815.73	0.069
815.91	0.068
816.10	0.068
816.28	0.068
816.47	0.068
816.65	0.068
816.84	0.068
817.03	0.068
817.21	0.067
817.40	0.067
817.58	0.067
817.77	0.067
817.95	0.067
818.14	0.067
818.32	0.067
818.51	0.067
818.69	0.067
818.88	0.067
819.06	0.067
819.25	0.067
819.43	0.066
819.62	0.067
819.80	0.066
819.99	0.066
820.18	0.066
820.36	0.066
820.55	0.066
820.73	0.066
820.92	0.066
821.10	0.067
821.29	0.066
821.47	0.066
821.66	0.066
821.84	0.067
822.03	0.066
822.21	0.066
822.40	0.066
822.58	0.066
822.77	0.065
822.95	0.066
823.14	0.065
823.32	0.065
823.50	0.065
823.69	0.065
823.87	0.065
824.06	0.065
824.24	0.065
824.43	0.065
824.61	0.065
824.80	0.065
824.98	0.064
825.17	0.064
825.35	0.065
825.54	0.065
825.72	0.064
825.91	0.064
826.09	0.064
826.28	0.064
826.46	0.064
826.64	0.064
826.83	0.064
827.01	0.064
827.20	0.064
827.38	0.064
827.57	0.064
827.75	0.064
827.94	0.064
828.12	0.064
828.31	0.064
828.49	0.063
828.67	0.064
828.86	0.064
829.04	0.064
829.23	0.064
829.41	0.064
829.60	0.064
829.78	0.063
829.96	0.063
830.15	0.063
830.33	0.063
830.52	0.064
830.70	0.063
830.88	0.063
831.07	0.063
831.25	0.063
831.44	0.063
831.62	0.063
831.81	0.063
831.99	0.063
832.17	0.063
832.36	0.063
832.54	0.063
832.73	0.063
832.91	0.063
833.09	0.063
833.28	0.063
833.46	0.063
833.65	0.063
833.83	0.063
834.01	0.062
834.20	0.062
834.38	0.062
834.56	0.062
834.75	0.062
834.93	0.062
835.12	0.062
835.30	0.062
835.48	0.062
835.67	0.062
835.85	0.062
836.03	0.061
836.22	0.061
836.40	0.061
836.59	0.062
836.77	0.061
836.95	0.061
837.14	0.061
837.32	0.061
837.50	0.061
837.69	0.061
837.87	0.061
838.05	0.061
838.24	0.061
838.42	0.061
838.60	0.061
838.79	0.061
838.97	0.061
839.15	0.061
839.34	0.061
839.52	0.061
839.70	0.061
839.89	0.061
840.07	0.061
840.25	0.060
840.44	0.060
840.62	0.060
840.80	0.060
840.99	0.060
841.17	0.060
841.35	0.060
841.54	0.060
841.72	0.060
841.90	0.060
842.09	0.060
842.27	0.060
842.45	0.060
842.64	0.059
842.82	0.059
843.00	0.059
843.19	0.059
843.37	0.059
843.55	0.059
843.73	0.059
843.92	0.059
844.10	0.059
844.28	0.059
844.47	0.059
844.65	0.059
844.83	0.059
845.01	0.060
845.20	0.060
845.38	0.060
845.56	0.060
845.75	0.060
845.93	0.060
846.11	0.059
846.29	0.059
846.48	0.059
846.66	0.059
846.84	0.059
847.02	0.059
847.21	0.059
847.39	0.058
847.57	0.058
847.76	0.058
847.94	0.058
848.12	0.058
848.30	0.058
848.49	0.058
848.67	0.058
848.85	0.057
849.03	0.057
849.22	0.057
849.40	0.057
849.58	0.057
849.76	0.057
849.95	0.057
850.13	0.057
850.31	0.057
850.49	0.057
850.67	0.057
850.86	0.057
851.04	0.057
851.22	0.057
851.40	0.057
851.59	0.057
851.77	0.057
851.95	0.057
852.13	0.057
852.31	0.058
852.50	0.057
852.68	0.057
852.86	0.057
853.04	0.057
853.23	0.057
853.41	0.057
853.59	0.058
853.77	0.057
853.95	0.057
854.14	0.057
854.32	0.057
854.50	0.057
854.68	0.057
854.86	0.057
855.04	0.057
855.23	0.057
855.41	0.057
855.59	0.057
855.77	0.057
855.95	0.056
856.14	0.056
856.32	0.056
856.50	0.056
856.68	0.056
856.86	0.056
857.04	0.056
857.23	0.056
857.41	0.055
857.59	0.056
857.77	0.056
857.95	0.056
858.13	0.056
858.32	0.056
858.50	0.055
858.68	0.055
858.86	0.055
859.04	0.055
859.22	0.055
859.41	0.055
859.59	0.055
859.77	0.055
859.95	0.055
860.13	0.056
860.31	0.056
860.49	0.056
860.68	0.055
860.86	0.055
861.04	0.055
861.22	0.055
861.40	0.055
861.58	0.055
861.76	0.055
861.94	0.055
862.13	0.055
862.31	0.055
862.49	0.055
862.67	0.055
862.85	0.055
863.03	0.055
863.21	0.055
863.39	0.055
863.57	0.055
863.76	0.055
863.94	0.055
864.12	0.055
864.30	0.054
864.48	0.055
864.66	0.054
864.84	0.054
865.02	0.054
865.20	0.054
865.38	0.054
865.57	0.054
865.75	0.054
865.93	0.053
866.11	0.053
866.29	0.053
866.47	0.053
866.65	0.053
866.83	0.053
867.01	0.052
867.19	0.052
867.37	0.052
867.55	0.052
867.73	0.052
867.92	0.052
868.10	0.052
868.28	0.052
868.46	0.052
868.64	0.052
868.82	0.052
869.00	0.052
869.18	0.052
869.36	0.052
869.54	0.052
869.72	0.051
869.90	0.051
870.08	0.051
870.26	0.051
870.44	0.051
870.62	0.051
870.80	0.051
870.98	0.051
871.16	0.051
871.34	0.051
871.53	0.050
871.71	0.050
871.89	0.050
872.07	0.050
872.25	0.050
872.43	0.049
872.61	0.049
872.79	0.049
872.97	0.049
873.15	0.049
873.33	0.049
873.51	0.049
873.69	0.049
873.87	0.048
874.05	0.048
874.23	0.048
874.41	0.048
874.59	0.048
874.77	0.048
874.95	0.048
875.13	0.048
875.31	0.048
875.49	0.048
875.67	0.048
875.85	0.048
876.03	0.048
876.21	0.048
876.39	0.049
876.57	0.049
876.75	0.049
876.93	0.049
877.11	0.049
877.29	0.049
877.47	0.049
877.65	0.049
877.82	0.049
878.00	0.049
878.18	0.049
878.36	0.049
878.54	0.049
878.72	0.049
878.90	0.049
879.08	0.049
879.26	0.049
879.44	0.049
879.62	0.049
879.80	0.049
879.98	0.049
880.16	0.049
880.34	0.049
880.52	0.049
880.70	0.050
880.88	0.050
881.06	0.050
881.24	0.050
881.42	0.050
881.59	0.051
881.77	0.051
881.95	0.051
882.13	0.051
882.31	0.051
882.49	0.052
882.67	0.052
882.85	0.052
883.03	0.052
883.21	0.052
883.39	0.052
883.57	0.052
883.75	0.053
883.92	0.053
884.10	0.053
884.28	0.053
884.46	0.053
884.64	0.054
884.82	0.054
885.00	0.054
885.18	0.054
885.36	0.054
885.54	0.054
885.71	0.054
885.89	0.054
886.07	0.054
886.25	0.054
886.43	0.054
886.61	0.054
886.79	0.054
886.97	0.054
887.15	0.054
887.32	0.054
887.50	0.054
887.68	0.054
887.86	0.054
888.04	0.054
888.22	0.054
888.40	0.054
888.57	0.054
888.75	0.054
888.93	0.054
889.11	0.054
889.29	0.054
889.47	0.054
889.65	0.054
889.82	0.054
890.00	0.054
890.18	0.054
890.36	0.054
890.54	0.055
890.72	0.054
890.90	0.055
891.07	0.054
891.25	0.054
891.43	0.055
891.61	0.055
891.79	0.054
891.97	0.055
892.14	0.055
892.32	0.054
892.50	0.054
892.68	0.054
892.86	0.055
893.03	0.055
893.21	0.055
893.39	0.055
893.57	0.055
893.75	0.055
893.93	0.055
894.10	0.055
894.28	0.054
894.46	0.055
894.64	0.055
894.82	0.055
894.99	0.055
895.17	0.055
895.35	0.055
895.53	0.055
895.71	0.055
895.88	0.055
896.06	0.055
896.24	0.055
896.42	0.055
896.59	0.055
896.77	0.055
896.95	0.054
897.13	0.054
897.31	0.054
897.48	0.054
897.66	0.054
897.84	0.054
898.02	0.054
898.19	0.054
898.37	0.054
898.55	0.054
898.73	0.054
898.91	0.054
899.08	0.054
899.26	0.054
899.44	0.054
899.62	0.054
899.79	0.053
899.97	0.053
900.15	0.053
900.33	0.053
900.50	0.053
900.68	0.053
900.86	0.053
901.04	0.053
901.21	0.053
901.39	0.053
901.57	0.053
901.74	0.053
901.92	0.053
902.10	0.053
902.28	0.052
902.45	0.052
902.63	0.052
902.81	0.052
902.99	0.052
903.16	0.052
903.34	0.052
903.52	0.052
903.69	0.052
903.87	0.052
904.05	0.051
904.22	0.051
904.40	0.051
904.58	0.051
904.76	0.051
904.93	0.051
905.11	0.051
905.29	0.051
905.46	0.051
905.64	0.051
905.82	0.051
905.99	0.051
906.17	0.051
906.35	0.051
906.53	0.051
906.70	0.051
906.88	0.051
907.06	0.051
907.23	0.051
907.41	0.051
907.59	0.051
907.76	0.051
907.94	0.051
908.12	0.050
908.29	0.050
908.47	0.050
908.65	0.050
908.82	0.049
909.00	0.050
909.18	0.049
909.35	0.049
909.53	0.049
909.71	0.049
909.88	0.049
910.06	0.049
910.23	0.049
910.41	0.049
910.59	0.048
910.76	0.048
910.94	0.048
911.12	0.048
911.29	0.048
911.47	0.047
911.65	0.047
911.82	0.047
912.00	0.047
912.17	0.047
912.35	0.047
912.53	0.047
912.70	0.047
912.88	0.047
913.06	0.047
913.23	0.047
913.41	0.046
913.58	0.047
913.76	0.046
913.94	0.046
914.11	0.046
914.29	0.046
914.46	0.046
914.64	0.046
914.82	0.046
914.99	0.046
915.17	0.046
915.34	0.045
915.52	0.045
915.70	0.045
915.87	0.045
916.05	0.045
916.22	0.045
916.40	0.045
916.57	0.045
916.75	0.045
916.93	0.045
917.10	0.045
917.28	0.045
917.45	0.045
917.63	0.045
917.80	0.045
917.98	0.045
918.16	0.045
918.33	0.044
918.51	0.044
918.68	0.044
918.86	0.044
919.03	0.044
919.21	0.044
919.39	0.044
919.56	0.044
919.74	0.044
919.91	0.044
920.09	0.044
920.26	0.043
920.44	0.043
920.61	0.043
920.79	0.043
920.96	0.043
921.14	0.043
921.31	0.042
921.49	0.042
921.67	0.042
921.84	0.042
922.02	0.042
922.19	0.042
922.37	0.042
922.54	0.042
922.72	0.042
922.89	0.042
923.07	0.042
923.24	0.042
923.42	0.042
923.59	0.042
923.77	0.042
923.94	0.042
924.12	0.042
924.29	0.042
924.47	0.042
924.64	0.042
924.82	0.042
924.99	0.042
925.17	0.042
925.34	0.042
925.52	0.041
925.69	0.041
925.87	0.041
926.04	0.041
926.22	0.041
926.39	0.041
926.57	0.041
926.74	0.041
926.91	0.041
927.09	0.041
927.26	0.041
927.44	0.041
927.61	0.041
927.79	0.041
927.96	0.041
928.14	0.041
928.31	0.041
928.49	0.041
928.66	0.041
928.84	0.041
929.01	0.040
929.18	0.040
929.36	0.040
929.53	0.040
929.71	0.040
929.88	0.040
930.06	0.040
930.23	0.040
930.41	0.040
930.58	0.040
930.75	0.040
930.93	0.040
931.10	0.040
931.28	0.040
931.45	0.039
931.63	0.039
931.80	0.039
931.97	0.039
932.15	0.039
932.32	0.040
932.50	0.039
932.67	0.039
932.84	0.039
933.02	0.039
933.19	0.039
933.37	0.039
933.54	0.039
933.71	0.039
933.89	0.039
934.06	0.039
934.24	0.039
934.41	0.039
934.58	0.039
934.76	0.039
934.93	0.039
935.11	0.039
935.28	0.039
935.45	0.039
935.63	0.039
935.80	0.039
935.98	0.039
936.15	0.039
936.32	0.039
936.50	0.039
936.67	0.039
936.84	0.039
937.02	0.039
937.19	0.039
937.36	0.039
937.54	0.039
937.71	0.039
937.89	0.039
938.06	0.039
938.23	0.039
938.41	0.038
938.58	0.038
938.75	0.038
938.93	0.038
939.10	0.038
939.27	0.038
939.45	0.038
939.62	0.038
939.79	0.038
939.97	0.037
940.14	0.037
940.31	0.037
940.49	0.037
940.66	0.038
940.83	0.037
941.01	0.037
941.18	0.037
941.35	0.037
941.53	0.037
941.70	0.037
941.87	0.037
942.05	0.037
942.22	0.037
942.39	0.037
942.57	0.037
942.74	0.037
942.91	0.037
943.08	0.037
943.26	0.037
943.43	0.037
943.60	0.037
943.78	0.037
943.95	0.037
944.12	0.037
944.29	0.037
944.47	0.037
944.64	0.037
944.81	0.037
944.99	0.037
945.16	0.037
945.33	0.038
945.50	0.037
945.68	0.037
945.85	0.037
946.02	0.037
946.20	0.037
946.37	0.037
946.54	0.037
946.71	0.037
946.89	0.037
947.06	0.037
947.23	0.037
947.40	0.037
947.58	0.037
947.75	0.037
947.92	0.037
948.09	0.037
948.27	0.037
948.44	0.037
948.61	0.036
948.78	0.036
948.96	0.037
949.13	0.037
949.30	0.037
949.47	0.036
949.65	0.036
949.82	0.036
949.99	0.036
950.16	0.036
950.33	0.036
950.51	0.036
950.68	0.036
950.85	0.036
951.02	0.036
951.20	0.036
951.37	0.036
951.54	0.036
951.71	0.035
951.88	0.035
952.06	0.035
952.23	0.035
952.40	0.035
952.57	0.035
952.74	0.035
952.92	0.035
953.09	0.035
953.26	0.035
953.43	0.035
953.60	0.035
953.77	0.034
953.95	0.034
954.12	0.034
954.29	0.035
954.46	0.035
954.63	0.034
954.81	0.034
954.98	0.034
955.15	0.034
955.32	0.034
955.49	0.035
955.66	0.035
955.84	0.035
956.01	0.035
956.18	0.035
956.35	0.034
956.52	0.034
956.69	0.034
956.87	0.034
957.04	0.035
957.21	0.035
957.38	0.035
957.55	0.035
957.72	0.035
957.89	0.035
958.07	0.035
958.24	0.035
958.41	0.035
958.58	0.035
958.75	0.035
958.92	0.035
959.09	0.034
959.26	0.034
959.44	0.034
959.61	0.034
959.78	0.033
959.95	0.034
960.12	0.033
960.29	0.033
960.46	0.033
960.63	0.033
960.81	0.033
960.98	0.032
961.15	0.032
961.32	0.032
961.49	0.032
961.66	0.032
961.83	0.031
962.00	0.031
962.17	0.031
962.34	0.031
962.52	0.031
962.69	0.032
962.86	0.032
963.03	0.032
963.20	0.031
963.37	0.031
963.54	0.031
963.71	0.031
963.88	0.031
964.05	0.031
964.22	0.031
964.39	0.031
964.56	0.031
964.74	0.031
964.91	0.031
965.08	0.031
965.25	0.031
965.42	0.031
965.59	0.031
965.76	0.031
965.93	0.031
966.10	0.031
966.27	0.031
966.44	0.031
966.61	0.030
966.78	0.030
966.95	0.031
967.12	0.031
967.29	0.031
967.46	0.031
967.63	0.031
967.80	0.031
967.97	0.031
968.14	0.031
968.32	0.031
968.49	0.031
968.66	0.031
968.83	0.031
969.00	0.031
969.17	0.031
969.34	0.031
969.51	0.031
969.68	0.031
969.85	0.031
970.02	0.031
970.19	0.031
970.36	0.031
970.53	0.031
970.70	0.031
970.87	0.031
971.04	0.031
971.21	0.031
971.38	0.031
971.55	0.031
971.72	0.031
971.89	0.031
972.06	0.031
972.23	0.031
972.40	0.031
972.57	0.031
972.74	0.031
972.91	0.031
973.07	0.031
973.24	0.031
973.41	0.031
973.58	0.031
973.75	0.031
973.92	0.031
974.09	0.030
974.26	0.031
974.43	0.031
974.60	0.030
974.77	0.030
974.94	0.030
975.11	0.030
975.28	0.030
975.45	0.030
975.62	0.030
975.79	0.030
975.96	0.030
976.13	0.030
976.30	0.030
976.47	0.030
976.64	0.030
976.80	0.030
976.97	0.029
977.14	0.030
977.31	0.029
977.48	0.030
977.65	0.030
977.82	0.030
977.99	0.029
978.16	0.029
978.33	0.029
978.50	0.029
978.67	0.029
978.83	0.029
979.00	0.029
979.17	0.029
979.34	0.029
979.51	0.029
979.68	0.029
979.85	0.029
980.02	0.029
980.19	0.029
980.36	0.029
980.52	0.029
980.69	0.029
980.86	0.029
981.03	0.028
981.20	0.029
981.37	0.029
981.54	0.029
981.71	0.029
981.88	0.029
982.04	0.029
982.21	0.030
982.38	0.030
982.55	0.030
982.72	0.030
982.89	0.030
983.06	0.030
983.22	0.030
983.39	0.030
983.56	0.030
983.73	0.030
983.90	0.030
984.07	0.029
984.24	0.029
984.40	0.029
984.57	0.030
984.74	0.029
984.91	0.029
985.08	0.029
985.25	0.029
985.41	0.029
985.58	0.028
985.75	0.028
985.92	0.028
986.09	0.028
986.26	0.028
986.42	0.027
986.59	0.027
986.76	0.027
986.93	0.028
987.10	0.028
987.27	0.028
987.43	0.028
987.60	0.027
987.77	0.028
987.94	0.027
988.11	0.027
988.27	0.027
988.44	0.027
988.61	0.027
988.78	0.027
988.95	0.027
989.11	0.027
989.28	0.027
989.45	0.028
989.62	0.028
989.79	0.028
989.95	0.028
990.12	0.027
990.29	0.027
990.46	0.027
990.62	0.027
990.79	0.027
990.96	0.027
991.13	0.027
991.30	0.027
991.46	0.026
991.63	0.026
991.80	0.026
991.97	0.026
992.13	0.026
992.30	0.026
992.47	0.025
992.64	0.025
992.80	0.026
992.97	0.025
993.14	0.025
993.31	0.025
993.47	0.025
993.64	0.025
993.81	0.025
993.98	0.025
994.14	0.024
994.31	0.025
994.48	0.025
994.64	0.025
994.81	0.025
994.98	0.025
995.15	0.025
995.31	0.026
995.48	0.026
995.65	0.026
995.82	0.026
995.98	0.027
996.15	0.026
996.32	0.026
996.48	0.026
996.65	0.026
996.82	0.026
996.99	0.027
997.15	0.027
997.32	0.027
997.49	0.028
997.65	0.028
997.82	0.028
997.99	0.028
998.15	0.028
998.32	0.028
998.49	0.028
998.65	0.028
998.82	0.028
998.99	0.028
999.15	0.028
999.32	0.027
999.49	0.027
999.65	0.027
999.82	0.027
999.99	0.027
1000.15	0.027
1000.32	0.027
1000.49	0.028
1000.65	0.027
1000.82	0.027
1000.99	0.027
1001.15	0.027
1001.32	0.026
1001.49	0.027
1001.65	0.027
1001.82	0.027
1001.99	0.027
1002.15	0.027
1002.32	0.027
1002.49	0.027
1002.65	0.027
1002.82	0.027
1002.99	0.027
1003.15	0.027
1003.32	0.027
1003.48	0.027
1003.65	0.027
1003.82	0.027
1003.98	0.026
1004.15	0.027
1004.32	0.027
1004.48	0.027
1004.65	0.027
1004.81	0.027
1004.98	0.026
1005.15	0.026
1005.31	0.026
1005.48	0.026
1005.64	0.026
1005.81	0.026
1005.98	0.026
1006.14	0.026
1006.31	0.026
1006.47	0.026
1006.64	0.026
1006.81	0.026
1006.97	0.026
1007.14	0.026
1007.30	0.026
1007.47	0.027
1007.63	0.026
1007.80	0.026
1007.97	0.026
1008.13	0.025
1008.30	0.025
1008.46	0.026
1008.63	0.026
1008.79	0.026
1008.96	0.026
1009.13	0.026
1009.29	0.026
1009.46	0.026
1009.62	0.026
1009.79	0.026
1009.95	0.026
1010.12	0.026
1010.28	0.027
1010.45	0.026
1010.62	0.026
1010.78	0.026
1010.95	0.026
1011.11	0.026
1011.28	0.027
1011.44	0.027
1011.61	0.028
1011.77	0.028
1011.94	0.028
1012.10	0.027
1012.27	0.026
1012.43	0.026
1012.60	0.026
1012.76	0.027
1012.93	0.026
1013.10	0.025
1013.26	0.025
1013.43	0.025
1013.59	0.025
1013.76	0.025
1013.92	0.025
1014.09	0.024
1014.25	0.024
1014.42	0.024
1014.58	0.024
1014.75	0.024
1014.91	0.024
1015.08	0.024
1015.24	0.024
1015.41	0.025
1015.57	0.025
1015.73	0.025
1015.90	0.026
1016.06	0.025
1016.23	0.025
1016.39	0.025
1016.56	0.026
1016.72	0.026
1016.89	0.026
1017.05	0.025
1017.22	0.025
1017.38	0.025
1017.55	0.025
1017.71	0.024
1017.88	0.024
1018.04	0.024
1018.21	0.024
1018.37	0.024
1018.53	0.024
1018.70	0.024
1018.86	0.023
1019.03	0.022
1019.19	0.022
1019.36	0.021
1019.52	0.021
1019.69	0.021
1019.85	0.021
1020.01	0.020
1020.18	0.020
1020.34	0.020
1020.51	0.020
1020.67	0.020
1020.84	0.019
1021.00	0.019
1021.16	0.019
1021.33	0.020
1021.49	0.020
1021.66	0.019
1021.82	0.018
1021.98	0.017
1022.15	0.017
1022.31	0.017
1022.48	0.018
1022.64	0.017
1022.80	0.018
1022.97	0.018
1023.13	0.018
1023.30	0.018
1023.46	0.019
1023.62	0.019
1023.79	0.019
1023.95	0.019
1024.12	0.020
1024.28	0.020
1024.44	0.020
1024.61	0.020
1024.77	0.019
1024.93	0.019
1025.10	0.020
1025.26	0.020
1025.43	0.021
1025.59	0.022
1025.75	0.021
1025.92	0.021
1026.08	0.021
1026.24	0.021
1026.41	0.021
1026.57	0.021
1026.73	0.021
1026.90	0.020
1027.06	0.021
1027.23	0.020
1027.39	0.021
1027.55	0.021
1027.72	0.021
1027.88	0.022
1028.04	0.023
1028.21	0.023
1028.37	0.023
1028.53	0.022
1028.70	0.022
1028.86	0.021
1029.02	0.022
1029.19	0.022
1029.35	0.022
1029.51	0.023
1029.67	0.023
1029.84	0.023
1030.00	0.023
1030.16	0.023
1030.33	0.023
1030.49	0.022
1030.65	0.022
1030.82	0.022
1030.98	0.022
1031.14	0.023
1031.31	0.022
1031.47	0.022
1031.63	0.022
1031.79	0.022
1031.96	0.022
1032.12	0.022
1032.28	0.024
1032.45	0.023
1032.61	0.024
1032.77	0.024
1032.93	0.023
1033.10	0.023
1033.26	0.022
1033.42	0.022
1033.58	0.023
1033.75	0.023
1033.91	0.023
1034.07	0.024
1034.24	0.023
1034.40	0.022
1034.56	0.021
1034.72	0.021
1034.89	0.021
1035.05	0.020
1035.21	0.021
1035.37	0.020
1035.54	0.020
1035.70	0.019
1035.86	0.019
1036.02	0.017
1036.19	0.017
1036.35	0.018
1036.51	0.017
1036.67	0.018
1036.83	0.018
1037.00	0.018
1037.16	0.017
1037.32	0.017
1037.48	0.017
1037.65	0.018
1037.81	0.018
1037.97	0.018
1038.13	0.018
1038.29	0.018
1038.46	0.018
1038.62	0.017
1038.78	0.018
1038.94	0.018
1039.10	0.018
1039.27	0.017
1039.43	0.019
1039.59	0.019
1039.75	0.019
1039.91	0.020
1040.08	0.019
1040.24	0.020
1040.40	0.020
1040.56	0.019
1040.72	0.019
1040.89	0.018
1041.05	0.018
1041.21	0.017
1041.37	0.017
1041.53	0.018
1041.69	0.019
1041.86	0.019
1042.02	0.018
1042.18	0.018
1042.34	0.018
1042.50	0.017
1042.66	0.017
1042.83	0.016
1042.99	0.016
1043.15	0.017
1043.31	0.016
1043.47	0.018
1043.63	0.017
1043.79	0.016
1043.96	0.016
1044.12	0.017
1044.28	0.018
1044.44	0.018
1044.60	0.019
1044.76	0.019
1044.92	0.018
1045.09	0.017
1045.25	0.017
1045.41	0.010
1045.57	0.004
1045.73	0.022
1045.89	0.016
1046.05	0.026
1046.21	0.014
1046.38	0.036
1046.54	0.008
1046.70	0.027
1046.86	0.003
>>>>>End Processed Spectral Data<<<<<
