SpectraSuite Data File
++++++++++++++++++++++++++++++++++++
Date: Mon May 06 14:18:32 CDT 2013
User: Students
Dark Spectrum Present: Yes
Reference Spectrum Present: Yes
Number of Sampled Component Spectra: 1
Spectrometers: USB4H00887
Integration Time (usec): 25000 (USB4H00887)
Spectra Averaged: 10 (USB4H00887)
Boxcar Smoothing: 10 (USB4H00887)
Correct for Electrical Dark: No (USB4H00887)
Strobe/Lamp Enabled: No (USB4H00887)
Correct for Detector Non-linearity: No (USB4H00887)
Correct for Stray Light: No (USB4H00887)
Number of Pixels in Processed Spectrum: 3648
>>>>>Begin Processed Spectral Data<<<<<
345.83	-0.130
346.05	-0.130
346.26	-0.130
346.48	-0.380
346.70	-0.000
346.92	0.031
347.14	0.048
347.35	-0.000
347.57	-0.000
347.79	-0.446
348.01	0.253
348.23	0.401
348.44	0.548
348.66	0.982
348.88	-0.000
349.10	-0.000
349.32	-0.000
349.53	-0.000
349.75	-0.000
349.97	-0.000
350.19	-0.000
350.41	-0.000
350.62	-0.000
350.84	-0.000
351.06	-0.000
351.28	-0.000
351.50	-0.000
351.71	-0.000
351.93	-0.000
352.15	-0.000
352.37	-0.000
352.58	-0.000
352.80	-0.000
353.02	-0.000
353.24	-0.000
353.46	-0.000
353.67	-0.000
353.89	-0.000
354.11	-0.000
354.33	-0.000
354.54	-0.000
354.76	-0.000
354.98	-0.000
355.20	-0.000
355.41	-0.000
355.63	-0.000
355.85	-0.000
356.07	-0.000
356.28	-0.000
356.50	-0.000
356.72	-0.000
356.94	-0.000
357.15	-0.000
357.37	-0.000
357.59	-0.000
357.81	-0.000
358.02	-0.000
358.24	1.646
358.46	-0.000
358.68	2.397
358.89	1.391
359.11	-0.000
359.33	-0.000
359.55	1.126
359.76	1.055
359.98	0.972
360.20	1.102
360.42	1.082
360.63	1.552
360.85	1.091
361.07	0.859
361.29	0.687
361.50	0.708
361.72	1.022
361.94	1.351
362.15	-0.000
362.37	-0.000
362.59	-0.000
362.81	-0.000
363.02	-0.000
363.24	1.194
363.46	2.500
363.68	1.017
363.89	1.144
364.11	1.282
364.33	1.355
364.54	-0.000
364.76	-0.000
364.98	1.892
365.20	0.809
365.41	1.059
365.63	1.081
365.85	-0.000
366.06	-0.000
366.28	-0.000
366.50	-0.000
366.71	-0.000
366.93	-0.000
367.15	-0.000
367.37	-0.000
367.58	-0.000
367.80	-0.000
368.02	-0.000
368.23	-0.000
368.45	-0.000
368.67	-0.000
368.88	-0.000
369.10	-0.000
369.32	-0.000
369.53	-0.000
369.75	-0.000
369.97	-0.000
370.19	-0.000
370.40	-0.000
370.62	-0.000
370.84	-0.000
371.05	-0.000
371.27	-0.000
371.49	-0.000
371.70	-0.000
371.92	1.474
372.14	-0.000
372.35	1.134
372.57	1.493
372.79	1.032
373.00	1.061
373.22	1.895
373.44	1.596
373.65	-0.000
373.87	-0.000
374.09	-0.000
374.30	-0.000
374.52	-0.000
374.74	-0.000
374.95	-0.000
375.17	1.415
375.39	-0.000
375.60	-0.000
375.82	-0.000
376.04	-0.000
376.25	-0.000
376.47	-0.000
376.68	-0.000
376.90	-0.000
377.12	-0.000
377.33	-0.000
377.55	-0.000
377.77	-0.000
377.98	-0.000
378.20	-0.000
378.42	-0.000
378.63	-0.000
378.85	-0.000
379.07	-0.000
379.28	-0.000
379.50	-0.000
379.71	-0.000
379.93	-0.000
380.15	-0.000
380.36	-0.000
380.58	-0.000
380.80	-0.000
381.01	-0.000
381.23	-0.000
381.44	-0.000
381.66	-0.000
381.88	-0.000
382.09	-0.000
382.31	-0.000
382.53	-0.000
382.74	-0.000
382.96	1.452
383.17	-0.000
383.39	-0.000
383.61	-0.000
383.82	-0.000
384.04	-0.000
384.25	-0.000
384.47	-0.000
384.69	-0.000
384.90	-0.000
385.12	-0.000
385.33	-0.000
385.55	-0.000
385.77	-0.000
385.98	-0.000
386.20	-0.000
386.41	-0.000
386.63	-0.000
386.85	-0.000
387.06	-0.000
387.28	-0.000
387.49	-0.000
387.71	-0.000
387.93	-0.000
388.14	-0.000
388.36	-0.000
388.57	-0.000
388.79	-0.000
389.01	-0.000
389.22	-0.000
389.44	2.567
389.65	1.891
389.87	-0.000
390.08	-0.000
390.30	2.231
390.52	-0.000
390.73	2.111
390.95	-0.000
391.16	-0.000
391.38	1.886
391.59	-0.000
391.81	-0.000
392.03	1.496
392.24	-0.000
392.46	-0.000
392.67	-0.000
392.89	-0.000
393.10	-0.000
393.32	-0.000
393.53	-0.000
393.75	-0.000
393.97	-0.000
394.18	-0.000
394.40	-0.000
394.61	-0.000
394.83	-0.000
395.04	-0.000
395.26	-0.000
395.47	-0.000
395.69	-0.000
395.91	-0.000
396.12	-0.000
396.34	-0.000
396.55	-0.000
396.77	-0.000
396.98	1.945
397.20	1.384
397.41	1.570
397.63	1.481
397.84	1.926
398.06	1.958
398.27	1.703
398.49	1.250
398.71	1.488
398.92	1.483
399.14	1.584
399.35	1.585
399.57	1.569
399.78	1.473
400.00	1.659
400.21	1.533
400.43	1.375
400.64	1.230
400.86	1.044
401.07	1.029
401.29	1.010
401.50	1.113
401.72	1.258
401.93	1.086
402.15	1.066
402.36	0.953
402.58	1.002
402.79	1.144
403.01	1.285
403.22	1.212
403.44	1.381
403.65	1.245
403.87	1.155
404.08	1.209
404.30	1.244
404.51	1.225
404.73	1.309
404.94	1.403
405.16	1.667
405.37	3.279
405.59	2.735
405.80	-0.000
406.02	-0.000
406.23	-0.000
406.45	-0.000
406.66	-0.000
406.88	-0.000
407.09	-0.000
407.31	-0.000
407.52	2.574
407.74	-0.000
407.95	-0.000
408.17	-0.000
408.38	-0.000
408.60	-0.000
408.81	-0.000
409.03	-0.000
409.24	-0.000
409.45	-0.000
409.67	-0.000
409.88	-0.000
410.10	-0.000
410.31	-0.000
410.53	-0.000
410.74	-0.000
410.96	-0.000
411.17	-0.000
411.39	-0.000
411.60	-0.000
411.82	-0.000
412.03	-0.000
412.24	-0.000
412.46	-0.000
412.67	-0.000
412.89	-0.000
413.10	-0.000
413.32	-0.000
413.53	-0.000
413.75	-0.000
413.96	-0.000
414.17	-0.000
414.39	-0.000
414.60	-0.000
414.82	3.161
415.03	1.983
415.25	2.136
415.46	1.870
415.68	1.590
415.89	1.578
416.10	1.410
416.32	1.487
416.53	1.329
416.75	1.420
416.96	1.349
417.18	1.430
417.39	1.428
417.60	1.469
417.82	1.506
418.03	1.595
418.25	1.770
418.46	1.712
418.67	1.795
418.89	2.477
419.10	-0.000
419.32	-0.000
419.53	-0.000
419.75	2.815
419.96	2.011
420.17	3.844
420.39	-0.000
420.60	-0.000
420.82	-0.000
421.03	-0.000
421.24	-0.000
421.46	-0.000
421.67	-0.000
421.89	-0.000
422.10	-0.000
422.31	-0.000
422.53	2.717
422.74	1.988
422.96	1.786
423.17	1.820
423.38	1.509
423.60	1.443
423.81	1.461
424.03	1.418
424.24	1.519
424.45	1.717
424.67	1.702
424.88	1.712
425.09	1.657
425.31	1.621
425.52	1.511
425.74	1.604
425.95	1.539
426.16	1.626
426.38	1.656
426.59	1.585
426.80	1.549
427.02	1.669
427.23	1.655
427.45	1.915
427.66	2.009
427.87	-0.000
428.09	-0.000
428.30	-0.000
428.51	-0.000
428.73	2.041
428.94	1.920
429.15	2.105
429.37	1.802
429.58	1.826
429.79	1.824
430.01	1.891
430.22	1.723
430.44	1.807
430.65	1.751
430.86	1.647
431.08	1.770
431.29	1.940
431.50	1.803
431.72	1.981
431.93	1.710
432.14	1.633
432.36	1.644
432.57	1.645
432.78	1.637
433.00	1.586
433.21	1.613
433.42	1.644
433.64	1.578
433.85	1.604
434.06	1.591
434.28	1.670
434.49	1.741
434.70	1.670
434.92	1.631
435.13	1.646
435.34	1.602
435.56	1.574
435.77	1.515
435.98	1.587
436.20	1.499
436.41	1.505
436.62	1.401
436.83	1.404
437.05	1.434
437.26	1.381
437.47	1.400
437.69	1.359
437.90	1.365
438.11	1.370
438.33	1.354
438.54	1.340
438.75	1.304
438.97	1.299
439.18	1.313
439.39	1.337
439.60	1.305
439.82	1.351
440.03	1.358
440.24	1.396
440.46	1.345
440.67	1.389
440.88	1.448
441.10	1.518
441.31	1.503
441.52	1.471
441.73	1.549
441.95	1.555
442.16	1.646
442.37	1.625
442.58	1.573
442.80	1.636
443.01	1.647
443.22	1.749
443.44	1.659
443.65	1.690
443.86	1.638
444.07	1.623
444.29	1.535
444.50	1.602
444.71	1.575
444.92	1.570
445.14	1.560
445.35	1.521
445.56	1.526
445.78	1.481
445.99	1.523
446.20	1.510
446.41	1.558
446.63	1.497
446.84	1.508
447.05	1.476
447.26	1.449
447.48	1.423
447.69	1.362
447.90	1.373
448.11	1.340
448.33	1.361
448.54	1.399
448.75	1.408
448.96	1.353
449.18	1.362
449.39	1.420
449.60	1.405
449.81	1.408
450.03	1.398
450.24	1.412
450.45	1.415
450.66	1.357
450.87	1.361
451.09	1.410
451.30	1.406
451.51	1.459
451.72	1.438
451.94	1.445
452.15	1.484
452.36	1.474
452.57	1.493
452.78	1.499
453.00	1.479
453.21	1.539
453.42	1.488
453.63	1.522
453.85	1.479
454.06	1.463
454.27	1.446
454.48	1.498
454.69	1.547
454.91	1.529
455.12	1.575
455.33	1.568
455.54	1.482
455.75	1.473
455.97	1.456
456.18	1.489
456.39	1.498
456.60	1.510
456.81	1.527
457.03	1.535
457.24	1.478
457.45	1.501
457.66	1.475
457.87	1.537
458.09	1.492
458.30	1.483
458.51	1.515
458.72	1.520
458.93	1.477
459.15	1.462
459.36	1.446
459.57	1.431
459.78	1.412
459.99	1.478
460.20	1.453
460.42	1.466
460.63	1.432
460.84	1.456
461.05	1.422
461.26	1.420
461.47	1.419
461.69	1.430
461.90	1.400
462.11	1.381
462.32	1.368
462.53	1.365
462.74	1.361
462.96	1.349
463.17	1.351
463.38	1.355
463.59	1.323
463.80	1.324
464.01	1.333
464.23	1.348
464.44	1.317
464.65	1.322
464.86	1.317
465.07	1.354
465.28	1.351
465.49	1.390
465.71	1.405
465.92	1.407
466.13	1.420
466.34	1.420
466.55	1.440
466.76	1.436
466.97	1.455
467.19	1.444
467.40	1.445
467.61	1.455
467.82	1.444
468.03	1.474
468.24	1.484
468.45	1.480
468.66	1.447
468.88	1.461
469.09	1.457
469.30	1.444
469.51	1.436
469.72	1.442
469.93	1.399
470.14	1.364
470.35	1.364
470.57	1.358
470.78	1.370
470.99	1.362
471.20	1.356
471.41	1.336
471.62	1.354
471.83	1.347
472.04	1.337
472.25	1.338
472.47	1.338
472.68	1.333
472.89	1.330
473.10	1.321
473.31	1.317
473.52	1.320
473.73	1.335
473.94	1.324
474.15	1.308
474.36	1.311
474.57	1.319
474.79	1.322
475.00	1.326
475.21	1.311
475.42	1.313
475.63	1.325
475.84	1.336
476.05	1.335
476.26	1.347
476.47	1.347
476.68	1.352
476.89	1.343
477.10	1.345
477.32	1.341
477.53	1.362
477.74	1.371
477.95	1.375
478.16	1.363
478.37	1.368
478.58	1.369
478.79	1.357
479.00	1.362
479.21	1.351
479.42	1.349
479.63	1.352
479.84	1.353
480.05	1.351
480.26	1.354
480.47	1.342
480.69	1.336
480.90	1.347
481.11	1.344
481.32	1.345
481.53	1.341
481.74	1.354
481.95	1.353
482.16	1.349
482.37	1.338
482.58	1.342
482.79	1.344
483.00	1.343
483.21	1.358
483.42	1.358
483.63	1.355
483.84	1.354
484.05	1.352
484.26	1.361
484.47	1.360
484.68	1.353
484.89	1.361
485.10	1.358
485.31	1.354
485.52	1.352
485.73	1.342
485.94	1.350
486.15	1.337
486.37	1.339
486.58	1.344
486.79	1.345
487.00	1.344
487.21	1.345
487.42	1.347
487.63	1.340
487.84	1.332
488.05	1.340
488.26	1.344
488.47	1.351
488.68	1.344
488.89	1.340
489.10	1.336
489.31	1.333
489.52	1.335
489.73	1.339
489.94	1.338
490.15	1.346
490.36	1.337
490.57	1.342
490.78	1.338
490.99	1.331
491.20	1.336
491.41	1.338
491.62	1.328
491.83	1.335
492.04	1.333
492.25	1.343
492.45	1.346
492.66	1.344
492.87	1.335
493.08	1.335
493.29	1.334
493.50	1.340
493.71	1.342
493.92	1.343
494.13	1.339
494.34	1.337
494.55	1.340
494.76	1.349
494.97	1.360
495.18	1.364
495.39	1.365
495.60	1.362
495.81	1.361
496.02	1.362
496.23	1.355
496.44	1.361
496.65	1.356
496.86	1.353
497.07	1.355
497.28	1.357
497.49	1.357
497.70	1.362
497.91	1.364
498.12	1.363
498.32	1.360
498.53	1.364
498.74	1.368
498.95	1.365
499.16	1.367
499.37	1.358
499.58	1.352
499.79	1.357
500.00	1.366
500.21	1.366
500.42	1.367
500.63	1.373
500.84	1.367
501.05	1.374
501.26	1.379
501.46	1.378
501.67	1.381
501.88	1.381
502.09	1.382
502.30	1.377
502.51	1.385
502.72	1.394
502.93	1.394
503.14	1.397
503.35	1.403
503.56	1.398
503.77	1.399
503.97	1.408
504.18	1.409
504.39	1.414
504.60	1.421
504.81	1.430
505.02	1.430
505.23	1.441
505.44	1.439
505.65	1.436
505.86	1.438
506.07	1.448
506.27	1.461
506.48	1.454
506.69	1.454
506.90	1.438
507.11	1.435
507.32	1.436
507.53	1.439
507.74	1.436
507.95	1.438
508.15	1.441
508.36	1.432
508.57	1.430
508.78	1.418
508.99	1.418
509.20	1.408
509.41	1.399
509.62	1.400
509.82	1.395
510.03	1.394
510.24	1.395
510.45	1.396
510.66	1.391
510.87	1.398
511.08	1.402
511.29	1.415
511.49	1.418
511.70	1.417
511.91	1.415
512.12	1.411
512.33	1.411
512.54	1.414
512.75	1.420
512.95	1.418
513.16	1.417
513.37	1.414
513.58	1.417
513.79	1.423
514.00	1.420
514.20	1.419
514.41	1.415
514.62	1.414
514.83	1.407
515.04	1.406
515.25	1.402
515.46	1.401
515.66	1.395
515.87	1.395
516.08	1.391
516.29	1.392
516.50	1.397
516.71	1.400
516.91	1.397
517.12	1.390
517.33	1.398
517.54	1.401
517.75	1.398
517.95	1.405
518.16	1.411
518.37	1.409
518.58	1.414
518.79	1.424
519.00	1.423
519.20	1.429
519.41	1.428
519.62	1.433
519.83	1.434
520.04	1.437
520.24	1.435
520.45	1.440
520.66	1.445
520.87	1.442
521.08	1.442
521.28	1.447
521.49	1.449
521.70	1.439
521.91	1.439
522.12	1.444
522.32	1.441
522.53	1.436
522.74	1.439
522.95	1.438
523.16	1.435
523.36	1.437
523.57	1.429
523.78	1.427
523.99	1.426
524.20	1.430
524.40	1.430
524.61	1.432
524.82	1.430
525.03	1.429
525.23	1.434
525.44	1.429
525.65	1.428
525.86	1.438
526.06	1.445
526.27	1.447
526.48	1.442
526.69	1.443
526.90	1.442
527.10	1.441
527.31	1.444
527.52	1.445
527.73	1.439
527.93	1.443
528.14	1.449
528.35	1.448
528.56	1.443
528.76	1.446
528.97	1.442
529.18	1.438
529.39	1.433
529.59	1.432
529.80	1.431
530.01	1.429
530.22	1.424
530.42	1.423
530.63	1.419
530.84	1.423
531.05	1.423
531.25	1.426
531.46	1.428
531.67	1.433
531.88	1.432
532.08	1.438
532.29	1.437
532.50	1.432
532.70	1.433
532.91	1.434
533.12	1.435
533.33	1.439
533.53	1.442
533.74	1.443
533.95	1.440
534.15	1.448
534.36	1.444
534.57	1.449
534.78	1.450
534.98	1.451
535.19	1.447
535.40	1.443
535.60	1.442
535.81	1.442
536.02	1.438
536.23	1.440
536.43	1.438
536.64	1.438
536.85	1.444
537.05	1.443
537.26	1.446
537.47	1.440
537.67	1.436
537.88	1.437
538.09	1.437
538.30	1.437
538.50	1.436
538.71	1.439
538.92	1.433
539.12	1.433
539.33	1.433
539.54	1.432
539.74	1.435
539.95	1.437
540.16	1.436
540.36	1.437
540.57	1.435
540.78	1.434
540.98	1.435
541.19	1.432
541.40	1.429
541.60	1.426
541.81	1.426
542.02	1.427
542.22	1.430
542.43	1.430
542.64	1.426
542.84	1.425
543.05	1.425
543.26	1.429
543.46	1.423
543.67	1.425
543.88	1.424
544.08	1.428
544.29	1.425
544.50	1.424
544.70	1.422
544.91	1.419
545.12	1.419
545.32	1.419
545.53	1.419
545.74	1.419
545.94	1.420
546.15	1.419
546.35	1.420
546.56	1.417
546.77	1.418
546.97	1.427
547.18	1.426
547.39	1.426
547.59	1.420
547.80	1.421
548.01	1.419
548.21	1.420
548.42	1.416
548.62	1.419
548.83	1.421
549.04	1.420
549.24	1.424
549.45	1.427
549.65	1.423
549.86	1.420
550.07	1.423
550.27	1.422
550.48	1.421
550.69	1.421
550.89	1.426
551.10	1.423
551.30	1.418
551.51	1.423
551.72	1.423
551.92	1.427
552.13	1.429
552.33	1.432
552.54	1.433
552.75	1.432
552.95	1.429
553.16	1.425
553.36	1.426
553.57	1.421
553.78	1.418
553.98	1.424
554.19	1.429
554.39	1.430
554.60	1.428
554.80	1.429
555.01	1.428
555.22	1.424
555.42	1.427
555.63	1.426
555.83	1.422
556.04	1.423
556.25	1.418
556.45	1.417
556.66	1.413
556.86	1.409
557.07	1.409
557.27	1.407
557.48	1.409
557.68	1.406
557.89	1.409
558.10	1.409
558.30	1.405
558.51	1.401
558.71	1.395
558.92	1.397
559.12	1.397
559.33	1.397
559.54	1.396
559.74	1.391
559.95	1.391
560.15	1.391
560.36	1.387
560.56	1.388
560.77	1.389
560.97	1.389
561.18	1.391
561.38	1.392
561.59	1.392
561.79	1.393
562.00	1.393
562.21	1.392
562.41	1.392
562.62	1.392
562.82	1.393
563.03	1.395
563.23	1.392
563.44	1.391
563.64	1.391
563.85	1.393
564.05	1.395
564.26	1.396
564.46	1.395
564.67	1.396
564.87	1.400
565.08	1.399
565.28	1.399
565.49	1.402
565.69	1.402
565.90	1.403
566.10	1.403
566.31	1.406
566.51	1.404
566.72	1.402
566.92	1.403
567.13	1.400
567.33	1.400
567.54	1.406
567.74	1.406
567.95	1.406
568.15	1.406
568.36	1.406
568.56	1.405
568.77	1.406
568.97	1.407
569.18	1.405
569.38	1.404
569.59	1.407
569.79	1.407
570.00	1.407
570.20	1.408
570.41	1.407
570.61	1.403
570.82	1.407
571.02	1.411
571.23	1.411
571.43	1.415
571.64	1.415
571.84	1.415
572.05	1.416
572.25	1.415
572.45	1.411
572.66	1.411
572.86	1.412
573.07	1.411
573.27	1.408
573.48	1.408
573.68	1.411
573.89	1.408
574.09	1.404
574.30	1.400
574.50	1.395
574.70	1.397
574.91	1.399
575.11	1.399
575.32	1.397
575.52	1.397
575.73	1.394
575.93	1.392
576.14	1.391
576.34	1.389
576.54	1.391
576.75	1.392
576.95	1.394
577.16	1.397
577.36	1.393
577.57	1.393
577.77	1.391
577.97	1.388
578.18	1.389
578.38	1.390
578.59	1.390
578.79	1.392
579.00	1.392
579.20	1.393
579.40	1.391
579.61	1.393
579.81	1.392
580.02	1.393
580.22	1.392
580.42	1.391
580.63	1.393
580.83	1.391
581.04	1.392
581.24	1.388
581.45	1.386
581.65	1.389
581.85	1.392
582.06	1.394
582.26	1.392
582.47	1.390
582.67	1.392
582.87	1.390
583.08	1.390
583.28	1.389
583.48	1.388
583.69	1.388
583.89	1.385
584.10	1.384
584.30	1.386
584.50	1.388
584.71	1.387
584.91	1.385
585.12	1.382
585.32	1.380
585.52	1.382
585.73	1.384
585.93	1.383
586.13	1.382
586.34	1.379
586.54	1.382
586.75	1.386
586.95	1.385
587.15	1.389
587.36	1.390
587.56	1.388
587.76	1.388
587.97	1.386
588.17	1.385
588.37	1.386
588.58	1.381
588.78	1.381
588.98	1.383
589.19	1.382
589.39	1.383
589.60	1.384
589.80	1.381
590.00	1.378
590.21	1.379
590.41	1.376
590.61	1.378
590.82	1.376
591.02	1.372
591.22	1.372
591.43	1.372
591.63	1.373
591.83	1.375
592.04	1.372
592.24	1.372
592.44	1.373
592.65	1.372
592.85	1.374
593.05	1.376
593.26	1.372
593.46	1.370
593.66	1.372
593.86	1.370
594.07	1.371
594.27	1.370
594.47	1.370
594.68	1.370
594.88	1.369
595.08	1.369
595.29	1.371
595.49	1.370
595.69	1.371
595.90	1.370
596.10	1.370
596.30	1.370
596.50	1.370
596.71	1.370
596.91	1.372
597.11	1.371
597.32	1.371
597.52	1.372
597.72	1.378
597.93	1.377
598.13	1.379
598.33	1.379
598.53	1.380
598.74	1.380
598.94	1.382
599.14	1.384
599.35	1.385
599.55	1.385
599.75	1.385
599.95	1.385
600.16	1.385
600.36	1.385
600.56	1.385
600.76	1.385
600.97	1.385
601.17	1.385
601.37	1.385
601.58	1.384
601.78	1.384
601.98	1.383
602.18	1.385
602.39	1.384
602.59	1.385
602.79	1.386
602.99	1.384
603.20	1.384
603.40	1.383
603.60	1.382
603.80	1.382
604.01	1.383
604.21	1.382
604.41	1.381
604.61	1.382
604.82	1.386
605.02	1.386
605.22	1.386
605.42	1.385
605.62	1.383
605.83	1.383
606.03	1.386
606.23	1.386
606.43	1.384
606.64	1.385
606.84	1.385
607.04	1.384
607.24	1.386
607.45	1.384
607.65	1.383
607.85	1.381
608.05	1.380
608.25	1.379
608.46	1.381
608.66	1.382
608.86	1.382
609.06	1.379
609.26	1.379
609.47	1.380
609.67	1.380
609.87	1.383
610.07	1.384
610.28	1.383
610.48	1.382
610.68	1.379
610.88	1.378
611.08	1.376
611.29	1.376
611.49	1.378
611.69	1.378
611.89	1.379
612.09	1.380
612.29	1.382
612.50	1.383
612.70	1.382
612.90	1.382
613.10	1.379
613.30	1.381
613.51	1.381
613.71	1.382
613.91	1.382
614.11	1.381
614.31	1.381
614.51	1.379
614.72	1.377
614.92	1.380
615.12	1.382
615.32	1.382
615.52	1.384
615.72	1.383
615.93	1.383
616.13	1.381
616.33	1.383
616.53	1.385
616.73	1.383
616.93	1.382
617.14	1.381
617.34	1.379
617.54	1.379
617.74	1.380
617.94	1.379
618.14	1.379
618.34	1.378
618.55	1.378
618.75	1.379
618.95	1.380
619.15	1.382
619.35	1.381
619.55	1.382
619.75	1.381
619.96	1.383
620.16	1.381
620.36	1.383
620.56	1.383
620.76	1.379
620.96	1.379
621.16	1.381
621.36	1.383
621.57	1.385
621.77	1.385
621.97	1.385
622.17	1.383
622.37	1.383
622.57	1.385
622.77	1.385
622.97	1.386
623.18	1.386
623.38	1.385
623.58	1.385
623.78	1.386
623.98	1.383
624.18	1.379
624.38	1.379
624.58	1.378
624.78	1.378
624.98	1.378
625.19	1.378
625.39	1.377
625.59	1.377
625.79	1.377
625.99	1.377
626.19	1.377
626.39	1.375
626.59	1.378
626.79	1.378
626.99	1.378
627.19	1.376
627.40	1.377
627.60	1.376
627.80	1.377
628.00	1.377
628.20	1.379
628.40	1.383
628.60	1.382
628.80	1.382
629.00	1.381
629.20	1.383
629.40	1.384
629.60	1.385
629.80	1.384
630.00	1.384
630.20	1.384
630.41	1.381
630.61	1.383
630.81	1.381
631.01	1.379
631.21	1.378
631.41	1.379
631.61	1.378
631.81	1.379
632.01	1.377
632.21	1.379
632.41	1.382
632.61	1.380
632.81	1.382
633.01	1.385
633.21	1.384
633.41	1.384
633.61	1.383
633.81	1.380
634.01	1.381
634.21	1.382
634.41	1.382
634.61	1.383
634.81	1.384
635.01	1.383
635.22	1.384
635.42	1.385
635.62	1.385
635.82	1.387
636.02	1.386
636.22	1.389
636.42	1.387
636.62	1.385
636.82	1.385
637.02	1.385
637.22	1.386
637.42	1.385
637.62	1.386
637.82	1.386
638.02	1.387
638.22	1.386
638.42	1.386
638.62	1.387
638.82	1.387
639.02	1.389
639.22	1.391
639.42	1.393
639.62	1.390
639.82	1.391
640.02	1.389
640.22	1.388
640.42	1.387
640.62	1.386
640.82	1.386
641.02	1.386
641.22	1.388
641.42	1.385
641.61	1.387
641.81	1.388
642.01	1.386
642.21	1.387
642.41	1.389
642.61	1.388
642.81	1.389
643.01	1.390
643.21	1.388
643.41	1.387
643.61	1.389
643.81	1.391
644.01	1.390
644.21	1.393
644.41	1.392
644.61	1.393
644.81	1.393
645.01	1.393
645.21	1.393
645.41	1.392
645.61	1.393
645.81	1.391
646.01	1.391
646.21	1.392
646.40	1.393
646.60	1.391
646.80	1.390
647.00	1.390
647.20	1.389
647.40	1.390
647.60	1.390
647.80	1.390
648.00	1.390
648.20	1.389
648.40	1.388
648.60	1.388
648.80	1.387
649.00	1.389
649.20	1.388
649.39	1.387
649.59	1.386
649.79	1.385
649.99	1.388
650.19	1.387
650.39	1.388
650.59	1.387
650.79	1.387
650.99	1.386
651.19	1.384
651.39	1.384
651.58	1.384
651.78	1.383
651.98	1.381
652.18	1.381
652.38	1.383
652.58	1.382
652.78	1.383
652.98	1.383
653.18	1.383
653.38	1.386
653.57	1.387
653.77	1.390
653.97	1.392
654.17	1.392
654.37	1.393
654.57	1.392
654.77	1.393
654.97	1.395
655.16	1.394
655.36	1.395
655.56	1.397
655.76	1.396
655.96	1.395
656.16	1.394
656.36	1.393
656.56	1.391
656.75	1.392
656.95	1.392
657.15	1.394
657.35	1.394
657.55	1.393
657.75	1.391
657.95	1.389
658.14	1.388
658.34	1.384
658.54	1.383
658.74	1.383
658.94	1.383
659.14	1.384
659.34	1.385
659.53	1.386
659.73	1.386
659.93	1.386
660.13	1.388
660.33	1.390
660.53	1.391
660.72	1.391
660.92	1.390
661.12	1.388
661.32	1.387
661.52	1.387
661.72	1.385
661.91	1.387
662.11	1.388
662.31	1.389
662.51	1.390
662.71	1.390
662.90	1.393
663.10	1.393
663.30	1.391
663.50	1.391
663.70	1.392
663.90	1.391
664.09	1.391
664.29	1.392
664.49	1.393
664.69	1.390
664.89	1.391
665.08	1.393
665.28	1.397
665.48	1.396
665.68	1.396
665.88	1.396
666.07	1.395
666.27	1.396
666.47	1.396
666.67	1.398
666.87	1.399
667.06	1.397
667.26	1.397
667.46	1.398
667.66	1.397
667.85	1.394
668.05	1.395
668.25	1.393
668.45	1.391
668.65	1.393
668.84	1.395
669.04	1.397
669.24	1.397
669.44	1.396
669.63	1.397
669.83	1.398
670.03	1.400
670.23	1.400
670.42	1.398
670.62	1.398
670.82	1.394
671.02	1.393
671.22	1.394
671.41	1.393
671.61	1.393
671.81	1.393
672.01	1.395
672.20	1.395
672.40	1.396
672.60	1.398
672.80	1.395
672.99	1.396
673.19	1.395
673.39	1.394
673.58	1.393
673.78	1.393
673.98	1.392
674.18	1.391
674.37	1.392
674.57	1.394
674.77	1.395
674.97	1.399
675.16	1.401
675.36	1.401
675.56	1.405
675.75	1.404
675.95	1.405
676.15	1.406
676.35	1.406
676.54	1.409
676.74	1.408
676.94	1.408
677.13	1.407
677.33	1.406
677.53	1.408
677.73	1.408
677.92	1.407
678.12	1.408
678.32	1.407
678.51	1.405
678.71	1.405
678.91	1.404
679.11	1.404
679.30	1.406
679.50	1.405
679.70	1.406
679.89	1.405
680.09	1.405
680.29	1.404
680.48	1.405
680.68	1.404
680.88	1.404
681.07	1.403
681.27	1.403
681.47	1.402
681.66	1.402
681.86	1.403
682.06	1.405
682.25	1.403
682.45	1.402
682.65	1.402
682.84	1.401
683.04	1.399
683.24	1.399
683.43	1.398
683.63	1.398
683.83	1.396
684.02	1.398
684.22	1.397
684.42	1.398
684.61	1.397
684.81	1.395
685.01	1.396
685.20	1.397
685.40	1.397
685.60	1.399
685.79	1.397
685.99	1.398
686.19	1.397
686.38	1.399
686.58	1.400
686.77	1.403
686.97	1.404
687.17	1.403
687.36	1.403
687.56	1.403
687.76	1.401
687.95	1.400
688.15	1.400
688.34	1.402
688.54	1.401
688.74	1.402
688.93	1.403
689.13	1.404
689.33	1.405
689.52	1.407
689.72	1.405
689.91	1.407
690.11	1.406
690.31	1.406
690.50	1.408
690.70	1.408
690.89	1.408
691.09	1.407
691.29	1.410
691.48	1.410
691.68	1.409
691.87	1.413
692.07	1.414
692.27	1.414
692.46	1.414
692.66	1.414
692.85	1.414
693.05	1.416
693.25	1.415
693.44	1.413
693.64	1.412
693.83	1.414
694.03	1.416
694.22	1.416
694.42	1.419
694.62	1.417
694.81	1.418
695.01	1.418
695.20	1.419
695.40	1.418
695.59	1.417
695.79	1.418
695.99	1.418
696.18	1.419
696.38	1.416
696.57	1.415
696.77	1.417
696.96	1.417
697.16	1.415
697.36	1.416
697.55	1.416
697.75	1.415
697.94	1.416
698.14	1.416
698.33	1.415
698.53	1.415
698.72	1.413
698.92	1.413
699.11	1.412
699.31	1.411
699.51	1.410
699.70	1.412
699.90	1.411
700.09	1.408
700.29	1.406
700.48	1.409
700.68	1.409
700.87	1.410
701.07	1.410
701.26	1.410
701.46	1.411
701.65	1.411
701.85	1.413
702.04	1.411
702.24	1.408
702.43	1.409
702.63	1.408
702.82	1.409
703.02	1.410
703.21	1.410
703.41	1.410
703.60	1.413
703.80	1.413
703.99	1.416
704.19	1.418
704.38	1.421
704.58	1.420
704.77	1.421
704.97	1.420
705.16	1.421
705.36	1.422
705.55	1.422
705.75	1.423
705.94	1.422
706.14	1.423
706.33	1.423
706.53	1.422
706.72	1.421
706.92	1.423
707.11	1.422
707.31	1.422
707.50	1.422
707.70	1.420
707.89	1.419
708.09	1.419
708.28	1.419
708.48	1.417
708.67	1.417
708.86	1.416
709.06	1.416
709.25	1.414
709.45	1.414
709.64	1.415
709.84	1.415
710.03	1.415
710.23	1.413
710.42	1.412
710.62	1.413
710.81	1.416
711.00	1.415
711.20	1.416
711.39	1.415
711.59	1.415
711.78	1.418
711.98	1.417
712.17	1.417
712.37	1.416
712.56	1.416
712.75	1.416
712.95	1.417
713.14	1.417
713.34	1.418
713.53	1.418
713.73	1.417
713.92	1.418
714.11	1.420
714.31	1.422
714.50	1.424
714.70	1.423
714.89	1.422
715.08	1.422
715.28	1.423
715.47	1.423
715.67	1.425
715.86	1.421
716.06	1.423
716.25	1.423
716.44	1.421
716.64	1.421
716.83	1.423
717.03	1.424
717.22	1.423
717.41	1.423
717.61	1.423
717.80	1.422
717.99	1.420
718.19	1.418
718.38	1.416
718.58	1.414
718.77	1.417
718.96	1.416
719.16	1.419
719.35	1.417
719.55	1.418
719.74	1.416
719.93	1.416
720.13	1.417
720.32	1.418
720.51	1.421
720.71	1.422
720.90	1.420
721.10	1.419
721.29	1.419
721.48	1.418
721.68	1.419
721.87	1.420
722.06	1.421
722.26	1.424
722.45	1.426
722.64	1.426
722.84	1.425
723.03	1.425
723.22	1.424
723.42	1.425
723.61	1.422
723.80	1.425
724.00	1.427
724.19	1.425
724.38	1.425
724.58	1.424
724.77	1.424
724.96	1.425
725.16	1.427
725.35	1.428
725.54	1.432
725.74	1.430
725.93	1.430
726.12	1.431
726.32	1.430
726.51	1.430
726.70	1.433
726.90	1.433
727.09	1.432
727.28	1.432
727.48	1.432
727.67	1.434
727.86	1.434
728.06	1.435
728.25	1.435
728.44	1.434
728.64	1.433
728.83	1.433
729.02	1.433
729.21	1.431
729.41	1.432
729.60	1.428
729.79	1.431
729.99	1.429
730.18	1.428
730.37	1.428
730.56	1.426
730.76	1.427
730.95	1.426
731.14	1.427
731.34	1.425
731.53	1.424
731.72	1.425
731.91	1.422
732.11	1.422
732.30	1.423
732.49	1.424
732.69	1.425
732.88	1.426
733.07	1.424
733.26	1.424
733.46	1.425
733.65	1.427
733.84	1.425
734.03	1.426
734.23	1.426
734.42	1.425
734.61	1.425
734.80	1.422
735.00	1.422
735.19	1.422
735.38	1.423
735.57	1.426
735.77	1.425
735.96	1.426
736.15	1.425
736.34	1.424
736.54	1.422
736.73	1.422
736.92	1.420
737.11	1.423
737.31	1.422
737.50	1.420
737.69	1.420
737.88	1.422
738.07	1.422
738.27	1.422
738.46	1.427
738.65	1.428
738.84	1.429
739.04	1.428
739.23	1.429
739.42	1.427
739.61	1.425
739.80	1.425
740.00	1.427
740.19	1.428
740.38	1.429
740.57	1.430
740.76	1.431
740.96	1.432
741.15	1.432
741.34	1.433
741.53	1.434
741.72	1.434
741.92	1.433
742.11	1.436
742.30	1.436
742.49	1.435
742.68	1.436
742.88	1.438
743.07	1.438
743.26	1.439
743.45	1.441
743.64	1.441
743.84	1.442
744.03	1.439
744.22	1.440
744.41	1.439
744.60	1.439
744.79	1.438
744.99	1.436
745.18	1.436
745.37	1.434
745.56	1.435
745.75	1.434
745.94	1.434
746.14	1.432
746.33	1.433
746.52	1.430
746.71	1.429
746.90	1.427
747.09	1.428
747.28	1.426
747.48	1.427
747.67	1.428
747.86	1.428
748.05	1.428
748.24	1.427
748.43	1.426
748.62	1.427
748.82	1.427
749.01	1.428
749.20	1.426
749.39	1.428
749.58	1.426
749.77	1.427
749.96	1.426
750.16	1.427
750.35	1.425
750.54	1.426
750.73	1.424
750.92	1.425
751.11	1.425
751.30	1.427
751.49	1.425
751.68	1.424
751.88	1.424
752.07	1.422
752.26	1.425
752.45	1.426
752.64	1.425
752.83	1.425
753.02	1.426
753.21	1.428
753.40	1.427
753.60	1.428
753.79	1.428
753.98	1.428
754.17	1.427
754.36	1.429
754.55	1.428
754.74	1.429
754.93	1.429
755.12	1.429
755.31	1.429
755.50	1.431
755.70	1.430
755.89	1.432
756.08	1.433
756.27	1.431
756.46	1.431
756.65	1.432
756.84	1.434
757.03	1.433
757.22	1.432
757.41	1.435
757.60	1.433
757.79	1.433
757.98	1.434
758.17	1.435
758.36	1.434
758.56	1.437
758.75	1.439
758.94	1.438
759.13	1.438
759.32	1.437
759.51	1.436
759.70	1.436
759.89	1.437
760.08	1.438
760.27	1.440
760.46	1.441
760.65	1.441
760.84	1.439
761.03	1.438
761.22	1.438
761.41	1.438
761.60	1.439
761.79	1.437
761.98	1.437
762.17	1.438
762.36	1.439
762.55	1.438
762.74	1.436
762.93	1.437
763.12	1.435
763.31	1.434
763.50	1.436
763.69	1.436
763.88	1.436
764.07	1.435
764.26	1.434
764.45	1.433
764.64	1.433
764.83	1.433
765.02	1.437
765.21	1.438
765.40	1.437
765.59	1.438
765.78	1.440
765.97	1.439
766.16	1.438
766.35	1.437
766.54	1.439
766.73	1.439
766.92	1.439
767.11	1.443
767.30	1.443
767.49	1.442
767.68	1.442
767.87	1.442
768.06	1.443
768.25	1.442
768.44	1.440
768.63	1.443
768.82	1.443
769.01	1.442
769.20	1.439
769.39	1.440
769.58	1.440
769.77	1.440
769.96	1.442
770.15	1.440
770.34	1.441
770.53	1.441
770.72	1.441
770.91	1.443
771.10	1.440
771.29	1.441
771.47	1.442
771.66	1.443
771.85	1.441
772.04	1.441
772.23	1.442
772.42	1.444
772.61	1.442
772.80	1.443
772.99	1.442
773.18	1.444
773.37	1.443
773.56	1.442
773.75	1.441
773.94	1.443
774.13	1.444
774.31	1.443
774.50	1.439
774.69	1.438
774.88	1.438
775.07	1.439
775.26	1.435
775.45	1.434
775.64	1.435
775.83	1.437
776.02	1.437
776.21	1.438
776.40	1.438
776.58	1.438
776.77	1.439
776.96	1.440
777.15	1.439
777.34	1.440
777.53	1.442
777.72	1.442
777.91	1.442
778.10	1.442
778.28	1.441
778.47	1.444
778.66	1.443
778.85	1.444
779.04	1.444
779.23	1.445
779.42	1.446
779.61	1.445
779.79	1.445
779.98	1.442
780.17	1.441
780.36	1.439
780.55	1.440
780.74	1.439
780.93	1.437
781.12	1.438
781.30	1.437
781.49	1.436
781.68	1.437
781.87	1.436
782.06	1.436
782.25	1.437
782.44	1.437
782.62	1.439
782.81	1.438
783.00	1.439
783.19	1.442
783.38	1.443
783.57	1.444
783.75	1.442
783.94	1.444
784.13	1.444
784.32	1.446
784.51	1.444
784.70	1.445
784.88	1.447
785.07	1.444
785.26	1.443
785.45	1.444
785.64	1.444
785.83	1.445
786.01	1.445
786.20	1.443
786.39	1.444
786.58	1.442
786.77	1.441
786.95	1.441
787.14	1.438
787.33	1.436
787.52	1.434
787.71	1.435
787.90	1.435
788.08	1.436
788.27	1.437
788.46	1.437
788.65	1.435
788.84	1.435
789.02	1.435
789.21	1.435
789.40	1.435
789.59	1.433
789.77	1.431
789.96	1.431
790.15	1.432
790.34	1.430
790.53	1.432
790.71	1.434
790.90	1.434
791.09	1.435
791.28	1.436
791.46	1.438
791.65	1.438
791.84	1.438
792.03	1.437
792.22	1.436
792.40	1.438
792.59	1.439
792.78	1.440
792.97	1.443
793.15	1.444
793.34	1.443
793.53	1.446
793.72	1.447
793.90	1.448
794.09	1.448
794.28	1.449
794.47	1.449
794.65	1.447
794.84	1.446
795.03	1.446
795.22	1.448
795.40	1.446
795.59	1.446
795.78	1.448
795.97	1.448
796.15	1.446
796.34	1.448
796.53	1.450
796.71	1.448
796.90	1.448
797.09	1.447
797.28	1.447
797.46	1.445
797.65	1.443
797.84	1.444
798.02	1.443
798.21	1.442
798.40	1.443
798.59	1.445
798.77	1.445
798.96	1.446
799.15	1.443
799.33	1.444
799.52	1.445
799.71	1.444
799.90	1.445
800.08	1.446
800.27	1.445
800.46	1.444
800.64	1.445
800.83	1.444
801.02	1.444
801.20	1.445
801.39	1.445
801.58	1.446
801.76	1.446
801.95	1.446
802.14	1.447
802.32	1.446
802.51	1.447
802.70	1.448
802.88	1.446
803.07	1.447
803.26	1.447
803.44	1.447
803.63	1.448
803.82	1.447
804.00	1.447
804.19	1.446
804.38	1.447
804.56	1.448
804.75	1.451
804.94	1.451
805.12	1.450
805.31	1.450
805.50	1.450
805.68	1.448
805.87	1.448
806.06	1.447
806.24	1.447
806.43	1.448
806.62	1.448
806.80	1.448
806.99	1.451
807.17	1.450
807.36	1.450
807.55	1.450
807.73	1.449
807.92	1.451
808.11	1.452
808.29	1.449
808.48	1.448
808.66	1.446
808.85	1.446
809.04	1.446
809.22	1.447
809.41	1.448
809.59	1.449
809.78	1.449
809.97	1.450
810.15	1.451
810.34	1.449
810.53	1.449
810.71	1.448
810.90	1.447
811.08	1.448
811.27	1.448
811.45	1.447
811.64	1.449
811.83	1.451
812.01	1.449
812.20	1.451
812.38	1.453
812.57	1.455
812.76	1.454
812.94	1.454
813.13	1.455
813.31	1.454
813.50	1.454
813.68	1.455
813.87	1.457
814.06	1.457
814.24	1.458
814.43	1.457
814.61	1.458
814.80	1.459
814.98	1.459
815.17	1.462
815.36	1.460
815.54	1.459
815.73	1.456
815.91	1.456
816.10	1.456
816.28	1.454
816.47	1.453
816.65	1.454
816.84	1.456
817.03	1.456
817.21	1.457
817.40	1.456
817.58	1.455
817.77	1.453
817.95	1.451
818.14	1.449
818.32	1.451
818.51	1.451
818.69	1.450
818.88	1.450
819.06	1.447
819.25	1.449
819.43	1.450
819.62	1.450
819.80	1.450
819.99	1.451
820.18	1.453
820.36	1.453
820.55	1.451
820.73	1.450
820.92	1.451
821.10	1.451
821.29	1.452
821.47	1.450
821.66	1.450
821.84	1.452
822.03	1.453
822.21	1.452
822.40	1.453
822.58	1.451
822.77	1.450
822.95	1.451
823.14	1.453
823.32	1.453
823.50	1.453
823.69	1.452
823.87	1.450
824.06	1.447
824.24	1.448
824.43	1.451
824.61	1.452
824.80	1.450
824.98	1.449
825.17	1.450
825.35	1.452
825.54	1.452
825.72	1.453
825.91	1.455
826.09	1.455
826.28	1.454
826.46	1.456
826.64	1.457
826.83	1.458
827.01	1.457
827.20	1.456
827.38	1.457
827.57	1.458
827.75	1.460
827.94	1.459
828.12	1.459
828.31	1.459
828.49	1.457
828.67	1.456
828.86	1.458
829.04	1.457
829.23	1.457
829.41	1.458
829.60	1.455
829.78	1.453
829.96	1.453
830.15	1.455
830.33	1.455
830.52	1.457
830.70	1.455
830.88	1.454
831.07	1.456
831.25	1.456
831.44	1.457
831.62	1.457
831.81	1.460
831.99	1.462
832.17	1.461
832.36	1.460
832.54	1.460
832.73	1.459
832.91	1.459
833.09	1.459
833.28	1.458
833.46	1.460
833.65	1.461
833.83	1.460
834.01	1.460
834.20	1.461
834.38	1.459
834.56	1.459
834.75	1.459
834.93	1.459
835.12	1.460
835.30	1.460
835.48	1.461
835.67	1.460
835.85	1.458
836.03	1.458
836.22	1.460
836.40	1.460
836.59	1.460
836.77	1.458
836.95	1.457
837.14	1.457
837.32	1.458
837.50	1.457
837.69	1.458
837.87	1.456
838.05	1.454
838.24	1.453
838.42	1.456
838.60	1.456
838.79	1.454
838.97	1.453
839.15	1.452
839.34	1.451
839.52	1.452
839.70	1.452
839.89	1.452
840.07	1.452
840.25	1.453
840.44	1.455
840.62	1.456
840.80	1.457
840.99	1.458
841.17	1.458
841.35	1.458
841.54	1.457
841.72	1.458
841.90	1.457
842.09	1.458
842.27	1.456
842.45	1.457
842.64	1.457
842.82	1.456
843.00	1.454
843.19	1.454
843.37	1.456
843.55	1.457
843.73	1.456
843.92	1.455
844.10	1.455
844.28	1.452
844.47	1.452
844.65	1.452
844.83	1.453
845.01	1.452
845.20	1.450
845.38	1.450
845.56	1.454
845.75	1.454
845.93	1.453
846.11	1.454
846.29	1.454
846.48	1.454
846.66	1.456
846.84	1.459
847.02	1.460
847.21	1.458
847.39	1.455
847.57	1.457
847.76	1.458
847.94	1.457
848.12	1.458
848.30	1.461
848.49	1.460
848.67	1.460
848.85	1.459
849.03	1.463
849.22	1.461
849.40	1.458
849.58	1.459
849.76	1.460
849.95	1.456
850.13	1.457
850.31	1.456
850.49	1.455
850.67	1.453
850.86	1.454
851.04	1.456
851.22	1.458
851.40	1.458
851.59	1.456
851.77	1.459
851.95	1.459
852.13	1.456
852.31	1.457
852.50	1.457
852.68	1.461
852.86	1.460
853.04	1.463
853.23	1.462
853.41	1.464
853.59	1.463
853.77	1.464
853.95	1.466
854.14	1.465
854.32	1.467
854.50	1.468
854.68	1.465
854.86	1.464
855.04	1.464
855.23	1.463
855.41	1.464
855.59	1.463
855.77	1.463
855.95	1.464
856.14	1.464
856.32	1.465
856.50	1.461
856.68	1.462
856.86	1.462
857.04	1.463
857.23	1.462
857.41	1.464
857.59	1.464
857.77	1.461
857.95	1.465
858.13	1.464
858.32	1.463
858.50	1.465
858.68	1.463
858.86	1.464
859.04	1.464
859.22	1.465
859.41	1.464
859.59	1.464
859.77	1.464
859.95	1.465
860.13	1.464
860.31	1.465
860.49	1.464
860.68	1.465
860.86	1.466
861.04	1.464
861.22	1.461
861.40	1.462
861.58	1.463
861.76	1.462
861.94	1.462
862.13	1.464
862.31	1.465
862.49	1.466
862.67	1.466
862.85	1.467
863.03	1.465
863.21	1.466
863.39	1.467
863.57	1.466
863.76	1.465
863.94	1.465
864.12	1.465
864.30	1.465
864.48	1.462
864.66	1.461
864.84	1.464
865.02	1.465
865.20	1.465
865.38	1.466
865.57	1.465
865.75	1.465
865.93	1.462
866.11	1.459
866.29	1.458
866.47	1.456
866.65	1.455
866.83	1.457
867.01	1.458
867.19	1.454
867.37	1.455
867.55	1.456
867.73	1.457
867.92	1.457
868.10	1.459
868.28	1.461
868.46	1.462
868.64	1.459
868.82	1.460
869.00	1.461
869.18	1.460
869.36	1.459
869.54	1.458
869.72	1.460
869.90	1.462
870.08	1.462
870.26	1.465
870.44	1.465
870.62	1.463
870.80	1.465
870.98	1.466
871.16	1.465
871.34	1.464
871.53	1.465
871.71	1.464
871.89	1.463
872.07	1.462
872.25	1.461
872.43	1.461
872.61	1.461
872.79	1.460
872.97	1.459
873.15	1.460
873.33	1.460
873.51	1.458
873.69	1.460
873.87	1.461
874.05	1.458
874.23	1.459
874.41	1.460
874.59	1.458
874.77	1.460
874.95	1.461
875.13	1.462
875.31	1.463
875.49	1.461
875.67	1.461
875.85	1.462
876.03	1.463
876.21	1.463
876.39	1.465
876.57	1.465
876.75	1.469
876.93	1.471
877.11	1.473
877.29	1.476
877.47	1.476
877.65	1.476
877.82	1.478
878.00	1.479
878.18	1.478
878.36	1.480
878.54	1.482
878.72	1.481
878.90	1.480
879.08	1.479
879.26	1.480
879.44	1.478
879.62	1.477
879.80	1.476
879.98	1.478
880.16	1.475
880.34	1.474
880.52	1.472
880.70	1.473
880.88	1.473
881.06	1.470
881.24	1.469
881.42	1.470
881.59	1.470
881.77	1.469
881.95	1.469
882.13	1.468
882.31	1.468
882.49	1.468
882.67	1.469
882.85	1.469
883.03	1.469
883.21	1.473
883.39	1.474
883.57	1.475
883.75	1.474
883.92	1.474
884.10	1.477
884.28	1.476
884.46	1.473
884.64	1.472
884.82	1.473
885.00	1.472
885.18	1.473
885.36	1.471
885.54	1.470
885.71	1.471
885.89	1.472
886.07	1.469
886.25	1.468
886.43	1.468
886.61	1.469
886.79	1.468
886.97	1.467
887.15	1.467
887.32	1.467
887.50	1.468
887.68	1.470
887.86	1.469
888.04	1.470
888.22	1.470
888.40	1.473
888.57	1.474
888.75	1.475
888.93	1.475
889.11	1.477
889.29	1.478
889.47	1.476
889.65	1.476
889.82	1.477
890.00	1.480
890.18	1.478
890.36	1.478
890.54	1.478
890.72	1.480
890.90	1.479
891.07	1.481
891.25	1.481
891.43	1.482
891.61	1.483
891.79	1.481
891.97	1.482
892.14	1.481
892.32	1.482
892.50	1.482
892.68	1.481
892.86	1.479
893.03	1.481
893.21	1.482
893.39	1.481
893.57	1.480
893.75	1.481
893.93	1.484
894.10	1.483
894.28	1.482
894.46	1.482
894.64	1.483
894.82	1.481
894.99	1.479
895.17	1.479
895.35	1.480
895.53	1.481
895.71	1.482
895.88	1.481
896.06	1.479
896.24	1.478
896.42	1.478
896.59	1.478
896.77	1.478
896.95	1.480
897.13	1.481
897.31	1.484
897.48	1.482
897.66	1.480
897.84	1.484
898.02	1.485
898.19	1.484
898.37	1.484
898.55	1.484
898.73	1.484
898.91	1.484
899.08	1.482
899.26	1.482
899.44	1.483
899.62	1.484
899.79	1.487
899.97	1.487
900.15	1.487
900.33	1.487
900.50	1.487
900.68	1.485
900.86	1.483
901.04	1.480
901.21	1.481
901.39	1.482
901.57	1.480
901.74	1.481
901.92	1.481
902.10	1.480
902.28	1.479
902.45	1.479
902.63	1.479
902.81	1.478
902.99	1.478
903.16	1.477
903.34	1.477
903.52	1.474
903.69	1.475
903.87	1.475
904.05	1.475
904.22	1.474
904.40	1.477
904.58	1.477
904.76	1.480
904.93	1.480
905.11	1.479
905.29	1.478
905.46	1.478
905.64	1.478
905.82	1.475
905.99	1.477
906.17	1.478
906.35	1.478
906.53	1.478
906.70	1.477
906.88	1.479
907.06	1.478
907.23	1.480
907.41	1.478
907.59	1.479
907.76	1.478
907.94	1.478
908.12	1.478
908.29	1.478
908.47	1.477
908.65	1.476
908.82	1.477
909.00	1.477
909.18	1.476
909.35	1.475
909.53	1.479
909.71	1.478
909.88	1.479
910.06	1.481
910.23	1.481
910.41	1.482
910.59	1.480
910.76	1.481
910.94	1.481
911.12	1.481
911.29	1.482
911.47	1.483
911.65	1.482
911.82	1.481
912.00	1.480
912.17	1.482
912.35	1.483
912.53	1.482
912.70	1.481
912.88	1.482
913.06	1.483
913.23	1.482
913.41	1.484
913.58	1.482
913.76	1.481
913.94	1.483
914.11	1.482
914.29	1.481
914.46	1.482
914.64	1.481
914.82	1.483
914.99	1.483
915.17	1.482
915.34	1.483
915.52	1.484
915.70	1.484
915.87	1.483
916.05	1.483
916.22	1.482
916.40	1.484
916.57	1.483
916.75	1.485
916.93	1.483
917.10	1.481
917.28	1.481
917.45	1.481
917.63	1.481
917.80	1.484
917.98	1.484
918.16	1.482
918.33	1.484
918.51	1.484
918.68	1.485
918.86	1.483
919.03	1.483
919.21	1.482
919.39	1.486
919.56	1.486
919.74	1.486
919.91	1.484
920.09	1.481
920.26	1.482
920.44	1.480
920.61	1.479
920.79	1.482
920.96	1.481
921.14	1.482
921.31	1.480
921.49	1.476
921.67	1.478
921.84	1.478
922.02	1.475
922.19	1.474
922.37	1.473
922.54	1.474
922.72	1.475
922.89	1.475
923.07	1.473
923.24	1.472
923.42	1.474
923.59	1.477
923.77	1.480
923.94	1.479
924.12	1.480
924.29	1.481
924.47	1.480
924.64	1.484
924.82	1.482
924.99	1.486
925.17	1.490
925.34	1.490
925.52	1.490
925.69	1.491
925.87	1.491
926.04	1.492
926.22	1.494
926.39	1.494
926.57	1.494
926.74	1.493
926.91	1.492
927.09	1.490
927.26	1.491
927.44	1.490
927.61	1.494
927.79	1.494
927.96	1.496
928.14	1.496
928.31	1.498
928.49	1.497
928.66	1.496
928.84	1.491
929.01	1.489
929.18	1.489
929.36	1.489
929.53	1.489
929.71	1.489
929.88	1.488
930.06	1.489
930.23	1.490
930.41	1.491
930.58	1.491
930.75	1.491
930.93	1.489
931.10	1.488
931.28	1.485
931.45	1.486
931.63	1.485
931.80	1.484
931.97	1.480
932.15	1.483
932.32	1.482
932.50	1.485
932.67	1.486
932.84	1.486
933.02	1.486
933.19	1.485
933.37	1.485
933.54	1.484
933.71	1.482
933.89	1.482
934.06	1.481
934.24	1.479
934.41	1.479
934.58	1.479
934.76	1.479
934.93	1.480
935.11	1.477
935.28	1.477
935.45	1.478
935.63	1.478
935.80	1.477
935.98	1.475
936.15	1.476
936.32	1.476
936.50	1.474
936.67	1.476
936.84	1.476
937.02	1.474
937.19	1.474
937.36	1.475
937.54	1.474
937.71	1.477
937.89	1.478
938.06	1.480
938.23	1.481
938.41	1.481
938.58	1.480
938.75	1.481
938.93	1.481
939.10	1.480
939.27	1.480
939.45	1.477
939.62	1.480
939.79	1.479
939.97	1.479
940.14	1.483
940.31	1.480
940.49	1.481
940.66	1.485
940.83	1.485
941.01	1.488
941.18	1.487
941.35	1.484
941.53	1.484
941.70	1.483
941.87	1.481
942.05	1.483
942.22	1.484
942.39	1.485
942.57	1.484
942.74	1.484
942.91	1.484
943.08	1.485
943.26	1.482
943.43	1.482
943.60	1.483
943.78	1.480
943.95	1.483
944.12	1.481
944.29	1.481
944.47	1.483
944.64	1.479
944.81	1.482
944.99	1.483
945.16	1.488
945.33	1.487
945.50	1.489
945.68	1.487
945.85	1.488
946.02	1.487
946.20	1.489
946.37	1.489
946.54	1.489
946.71	1.492
946.89	1.492
947.06	1.492
947.23	1.495
947.40	1.495
947.58	1.493
947.75	1.496
947.92	1.495
948.09	1.491
948.27	1.491
948.44	1.490
948.61	1.487
948.78	1.486
948.96	1.487
949.13	1.486
949.30	1.489
949.47	1.487
949.65	1.484
949.82	1.483
949.99	1.485
950.16	1.485
950.33	1.484
950.51	1.484
950.68	1.483
950.85	1.483
951.02	1.487
951.20	1.489
951.37	1.489
951.54	1.491
951.71	1.493
951.88	1.494
952.06	1.495
952.23	1.495
952.40	1.491
952.57	1.488
952.74	1.488
952.92	1.489
953.09	1.487
953.26	1.491
953.43	1.491
953.60	1.491
953.77	1.493
953.95	1.491
954.12	1.494
954.29	1.493
954.46	1.491
954.63	1.491
954.81	1.490
954.98	1.488
955.15	1.490
955.32	1.488
955.49	1.489
955.66	1.488
955.84	1.494
956.01	1.502
956.18	1.506
956.35	1.505
956.52	1.501
956.69	1.507
956.87	1.506
957.04	1.509
957.21	1.507
957.38	1.510
957.55	1.506
957.72	1.502
957.89	1.505
958.07	1.501
958.24	1.500
958.41	1.501
958.58	1.496
958.75	1.489
958.92	1.490
959.09	1.497
959.26	1.495
959.44	1.495
959.61	1.486
959.78	1.482
959.95	1.482
960.12	1.485
960.29	1.482
960.46	1.484
960.63	1.482
960.81	1.483
960.98	1.480
961.15	1.484
961.32	1.486
961.49	1.481
961.66	1.489
961.83	1.487
962.00	1.486
962.17	1.493
962.34	1.496
962.52	1.493
962.69	1.481
962.86	1.480
963.03	1.479
963.20	1.484
963.37	1.483
963.54	1.482
963.71	1.482
963.88	1.484
964.05	1.483
964.22	1.480
964.39	1.479
964.56	1.479
964.74	1.478
964.91	1.483
965.08	1.487
965.25	1.479
965.42	1.480
965.59	1.481
965.76	1.478
965.93	1.480
966.10	1.484
966.27	1.486
966.44	1.487
966.61	1.485
966.78	1.485
966.95	1.491
967.12	1.495
967.29	1.495
967.46	1.491
967.63	1.487
967.80	1.486
967.97	1.490
968.14	1.493
968.32	1.490
968.49	1.493
968.66	1.490
968.83	1.494
969.00	1.490
969.17	1.492
969.34	1.491
969.51	1.485
969.68	1.482
969.85	1.484
970.02	1.482
970.19	1.485
970.36	1.484
970.53	1.482
970.70	1.475
970.87	1.480
971.04	1.482
971.21	1.484
971.38	1.486
971.55	1.485
971.72	1.484
971.89	1.486
972.06	1.482
972.23	1.484
972.40	1.485
972.57	1.490
972.74	1.488
972.91	1.487
973.07	1.492
973.24	1.495
973.41	1.496
973.58	1.501
973.75	1.498
973.92	1.497
974.09	1.504
974.26	1.510
974.43	1.505
974.60	1.505
974.77	1.506
974.94	1.504
975.11	1.502
975.28	1.502
975.45	1.503
975.62	1.506
975.79	1.504
975.96	1.501
976.13	1.498
976.30	1.492
976.47	1.497
976.64	1.500
976.80	1.501
976.97	1.502
977.14	1.505
977.31	1.499
977.48	1.507
977.65	1.501
977.82	1.509
977.99	1.507
978.16	1.509
978.33	1.510
978.50	1.513
978.67	1.511
978.83	1.511
979.00	1.509
979.17	1.505
979.34	1.507
979.51	1.506
979.68	1.508
979.85	1.512
980.02	1.511
980.19	1.506
980.36	1.506
980.52	1.507
980.69	1.498
980.86	1.501
981.03	1.496
981.20	1.489
981.37	1.487
981.54	1.486
981.71	1.479
981.88	1.483
982.04	1.480
982.21	1.477
982.38	1.470
982.55	1.469
982.72	1.471
982.89	1.472
983.06	1.476
983.22	1.476
983.39	1.476
983.56	1.483
983.73	1.479
983.90	1.480
984.07	1.474
984.24	1.485
984.40	1.486
984.57	1.482
984.74	1.486
984.91	1.482
985.08	1.479
985.25	1.486
985.41	1.483
985.58	1.483
985.75	1.488
985.92	1.495
986.09	1.500
986.26	1.502
986.42	1.499
986.59	1.502
986.76	1.504
986.93	1.512
987.10	1.509
987.27	1.513
987.43	1.515
987.60	1.520
987.77	1.511
987.94	1.507
988.11	1.500
988.27	1.501
988.44	1.501
988.61	1.510
988.78	1.509
988.95	1.509
989.11	1.507
989.28	1.509
989.45	1.514
989.62	1.512
989.79	1.506
989.95	1.504
990.12	1.501
990.29	1.501
990.46	1.488
990.62	1.491
990.79	1.492
990.96	1.487
991.13	1.489
991.30	1.491
991.46	1.498
991.63	1.501
991.80	1.502
991.97	1.502
992.13	1.500
992.30	1.499
992.47	1.508
992.64	1.514
992.80	1.509
992.97	1.507
993.14	1.505
993.31	1.499
993.47	1.507
993.64	1.511
993.81	1.516
993.98	1.529
994.14	1.522
994.31	1.523
994.48	1.520
994.64	1.520
994.81	1.518
994.98	1.517
995.15	1.522
995.31	1.518
995.48	1.519
995.65	1.521
995.82	1.523
995.98	1.511
996.15	1.508
996.32	1.510
996.48	1.501
996.65	1.514
996.82	1.535
996.99	1.535
997.15	1.535
997.32	1.530
997.49	1.532
997.65	1.534
997.82	1.531
997.99	1.537
998.15	1.535
998.32	1.537
998.49	1.523
998.65	1.523
998.82	1.529
998.99	1.524
999.15	1.521
999.32	1.514
999.49	1.513
999.65	1.521
999.82	1.524
999.99	1.527
1000.15	1.517
1000.32	1.510
1000.49	1.511
1000.65	1.508
1000.82	1.499
1000.99	1.496
1001.15	1.494
1001.32	1.494
1001.49	1.495
1001.65	1.494
1001.82	1.492
1001.99	1.508
1002.15	1.514
1002.32	1.512
1002.49	1.509
1002.65	1.501
1002.82	1.502
1002.99	1.513
1003.15	1.508
1003.32	1.509
1003.48	1.518
1003.65	1.526
1003.82	1.521
1003.98	1.514
1004.15	1.509
1004.32	1.519
1004.48	1.520
1004.65	1.527
1004.81	1.528
1004.98	1.529
1005.15	1.537
1005.31	1.540
1005.48	1.529
1005.64	1.530
1005.81	1.533
1005.98	1.540
1006.14	1.542
1006.31	1.558
1006.47	1.547
1006.64	1.544
1006.81	1.540
1006.97	1.535
1007.14	1.523
1007.30	1.530
1007.47	1.530
1007.63	1.527
1007.80	1.525
1007.97	1.525
1008.13	1.513
1008.30	1.519
1008.46	1.511
1008.63	1.514
1008.79	1.505
1008.96	1.511
1009.13	1.514
1009.29	1.514
1009.46	1.515
1009.62	1.510
1009.79	1.497
1009.95	1.502
1010.12	1.497
1010.28	1.510
1010.45	1.506
1010.62	1.498
1010.78	1.488
1010.95	1.502
1011.11	1.509
1011.28	1.497
1011.44	1.496
1011.61	1.496
1011.77	1.487
1011.94	1.502
1012.10	1.503
1012.27	1.519
1012.43	1.516
1012.60	1.511
1012.76	1.506
1012.93	1.519
1013.10	1.525
1013.26	1.533
1013.43	1.537
1013.59	1.539
1013.76	1.517
1013.92	1.523
1014.09	1.545
1014.25	1.549
1014.42	1.543
1014.58	1.549
1014.75	1.554
1014.91	1.554
1015.08	1.570
1015.24	1.566
1015.41	1.544
1015.57	1.542
1015.73	1.536
1015.90	1.545
1016.06	1.542
1016.23	1.541
1016.39	1.531
1016.56	1.539
1016.72	1.532
1016.89	1.528
1017.05	1.523
1017.22	1.539
1017.38	1.522
1017.55	1.515
1017.71	1.519
1017.88	1.519
1018.04	1.522
1018.21	1.530
1018.37	1.517
1018.53	1.524
1018.70	1.544
1018.86	1.546
1019.03	1.533
1019.19	1.545
1019.36	1.541
1019.52	1.552
1019.69	1.559
1019.85	1.550
1020.01	1.541
1020.18	1.532
1020.34	1.536
1020.51	1.554
1020.67	1.553
1020.84	1.564
1021.00	1.551
1021.16	1.545
1021.33	1.541
1021.49	1.528
1021.66	1.523
1021.82	1.524
1021.98	1.504
1022.15	1.510
1022.31	1.508
1022.48	1.526
1022.64	1.509
1022.80	1.504
1022.97	1.485
1023.13	1.482
1023.30	1.486
1023.46	1.494
1023.62	1.494
1023.79	1.490
1023.95	1.478
1024.12	1.476
1024.28	1.477
1024.44	1.477
1024.61	1.478
1024.77	1.473
1024.93	1.472
1025.10	1.477
1025.26	1.492
1025.43	1.504
1025.59	1.503
1025.75	1.512
1025.92	1.482
1026.08	1.484
1026.24	1.479
1026.41	1.491
1026.57	1.494
1026.73	1.480
1026.90	1.485
1027.06	1.478
1027.23	1.486
1027.39	1.492
1027.55	1.497
1027.72	1.507
1027.88	1.525
1028.04	1.541
1028.21	1.541
1028.37	1.544
1028.53	1.543
1028.70	1.540
1028.86	1.529
1029.02	1.508
1029.19	1.506
1029.35	1.526
1029.51	1.528
1029.67	1.527
1029.84	1.514
1030.00	1.506
1030.16	1.523
1030.33	1.508
1030.49	1.531
1030.65	1.541
1030.82	1.546
1030.98	1.551
1031.14	1.530
1031.31	1.512
1031.47	1.514
1031.63	1.516
1031.79	1.504
1031.96	1.500
1032.12	1.504
1032.28	1.513
1032.45	1.511
1032.61	1.521
1032.77	1.507
1032.93	1.519
1033.10	1.515
1033.26	1.540
1033.42	1.548
1033.58	1.546
1033.75	1.554
1033.91	1.558
1034.07	1.546
1034.24	1.535
1034.40	1.517
1034.56	1.527
1034.72	1.541
1034.89	1.515
1035.05	1.503
1035.21	1.513
1035.37	1.536
1035.54	1.511
1035.70	1.493
1035.86	1.501
1036.02	1.473
1036.19	1.496
1036.35	1.490
1036.51	1.514
1036.67	1.503
1036.83	1.499
1037.00	1.511
1037.16	1.526
1037.32	1.508
1037.48	1.520
1037.65	1.510
1037.81	1.515
1037.97	1.497
1038.13	1.497
1038.29	1.516
1038.46	1.523
1038.62	1.519
1038.78	1.511
1038.94	1.511
1039.10	1.507
1039.27	1.517
1039.43	1.561
1039.59	1.556
1039.75	1.551
1039.91	1.536
1040.08	1.529
1040.24	1.527
1040.40	1.535
1040.56	1.520
1040.72	1.522
1040.89	1.508
1041.05	1.525
1041.21	1.514
1041.37	1.508
1041.53	1.507
1041.69	1.530
1041.86	1.552
1042.02	1.570
1042.18	1.554
1042.34	1.573
1042.50	1.600
1042.66	1.618
1042.83	1.627
1042.99	1.628
1043.15	1.622
1043.31	1.646
1043.47	1.654
1043.63	1.632
1043.79	1.584
1043.96	1.574
1044.12	1.543
1044.28	1.560
1044.44	1.552
1044.60	1.574
1044.76	1.616
1044.92	1.634
1045.09	1.582
1045.25	1.557
1045.41	1.207
1045.57	1.410
1045.73	1.089
1045.89	-0.000
1046.05	1.485
1046.21	1.621
1046.38	1.596
1046.54	2.246
1046.70	1.427
1046.86	1.403
>>>>>End Processed Spectral Data<<<<<
